	Global X	Global Y	CD45RO	N/A	CD31	N/A	N/A	N/A	N/A	pan-CK	PD-1	Ki-67	cyclin D	b-actin	CD3	CD4	N/A	CD16	N/A	N/A	PD-L1	ATPase	Granzyme B	P53	NF-kB	PTEN	p-ERK1/2	N/A	Caspase 3
0	16278.0	19904.0	477.6	647.9	529.06	511.7	531.38	615.44	533.3399999999999	519.64	514.1	587.48	537.1800000000001	571.02	565.79	570.28	559.02	554.3399999999999	557.61	554.87	643.48	549.57	579.4300000000001	517.63	514.36	515.2	562.8199999999999	546.8	528.99
1	21529.0	8163.0	608.76	535.7	515.21	533.19	541.44	526.98	541.64	520.24	498.06	465.28000000000003	510.88	508.99	612.3	544.2	530.3399999999999	485.58000000000004	471.6	458.7	509.44	458.69	440.65999999999997	534.31	514.04	516.36	560.86	471.56	484.94
2	10381.0	18310.0	547.08	533.34	484.92	502.74	528.9300000000001	531.38	512.54	558.9200000000001	525.54	527.52	535.0	565.5	529.76	538.45	532.3	597.2	514.3399999999999	425.58	520.8399999999999	567.47	567.12	566.46	533.28	487.1	546.36	502.58000000000004	510.01
3	15805.0	10750.0	451.78	511.28	425.26	364.27	449.42	436.13000000000005	418.08000000000004	407.58000000000004	468.26	433.18000000000006	414.18	473.96000000000004	418.44	393.6	446.88	421.38	458.41	456.51	309.4	408.89	410.22	432.02	437.93	500.19000000000005	422.43	485.58	451.83000000000004
4	8175.0	12596.0	369.82	396.46000000000004	500.1	440.31	465.79	430.58000000000004	408.08	413.13	445.58000000000004	386.38	384.59000000000003	493.56000000000006	371.73	388.4	383.98	447.36	483.88	489.1	509.90000000000003	456.65	461.2	442.74	438.93000000000006	441.11	406.36	412.28	436.4
5	5609.0	8493.0	552.28	580.4000000000001	592.08	586.92	631.86	601.3	588.27	503.68	616.94	583.6	499.49	657.72	544.57	624.69	647.96	519.15	553.75	507.57000000000005	613.2	491.1600000000001	679.2	569.06	549.02	523.56	368.08	649.76	598.44
6	2212.0	12121.0	352.3	339.57	340.98	358.14	351.0	355.82	327.0	343.72	377.18	349.99	339.93	386.4599999999999	341.65999999999997	343.87	351.88	353.99	347.96000000000004	315.06000000000006	388.22	368.28	312.36	352.22	375.54	364.8	381.04999999999995	368.51	373.6
7	536.0	6515.0	397.33	388.09	390.44	387.0	419.88	364.36	392.28	404.86	367.6	393.39	376.68	413.8	389.58000000000004	366.89000000000004	365.08000000000004	389.85	397.32	381.40999999999997	503.22	414.6	441.09000000000003	430.44000000000005	363.68	380.59999999999997	383.94000000000005	396.39000000000004	454.78
8	6498.0	14728.0	538.7	481.96000000000004	491.29	470.68	441.38	494.78	494.4	501.71000000000004	537.3	494.04	489.76	485.99	605.95	504.09000000000003	472.0	562.73	558.54	607.9000000000001	429.6	482.13	510.38	523.48	539.3	426.40000000000003	328.71	528.7900000000001	523.86
9	10693.0	12743.0	382.62	379.24	350.77	359.98	314.67999999999995	342.38	334.78	346.1	296.9	317.87	334.76	369.84000000000003	352.03999999999996	351.34000000000003	352.08000000000004	347.53999999999996	357.51	344.49	308.74	366.17	295.08000000000004	350.3	341.28	302.33	404.66	334.05	343.84000000000003
10	1782.0	9100.0	417.83000000000004	410.97	439.77	405.59000000000003	408.22	412.83	408.88	422.08000000000004	431.38	423.22	392.66	422.67	428.89	431.78	418.19	408.18	409.51	405.28	437.42	402.27000000000004	423.44	463.0	402.43	395.68	427.30999999999995	406.78	411.38
11	5371.0	12284.0	455.01	418.97	391.89	404.53999999999996	413.74	445.8	440.46000000000004	402.43	411.32	457.55	389.20000000000005	376.1	412.88	437.62	375.65	450.46000000000004	408.98	426.82000000000005	401.35	429.64	400.14	401.0	433.53999999999996	436.05	414.70000000000005	387.9	418.06000000000006
12	1143.0	12385.0	524.0	506.28000000000003	452.38	538.8199999999999	510.84	522.72	496.64	492.6	517.8	502.58000000000004	489.4	468.74	532.57	514.4200000000001	558.54	481.88	501.07000000000005	540.8299999999999	465.82000000000005	439.09000000000003	545.37	463.71000000000004	461.96	455.17	496.36	534.36	540.25
13	17612.0	19839.0	455.30999999999995	461.35	428.5	413.11	517.89	484.1	506.63	509.65999999999997	504.51	420.34000000000003	458.21000000000004	492.84000000000003	473.26	457.08000000000004	517.2	493.85	456.28	523.7	502.84000000000003	510.95	460.3	490.67	564.8199999999999	450.14	485.82	439.4	437.12
14	2183.0	7847.0	359.04	370.68	353.87	357.58000000000004	361.35	356.08000000000004	352.58000000000004	345.5	363.28	360.95	385.12	336.15	369.13	376.77	386.39	342.66	370.40000000000003	382.66999999999996	339.58000000000004	370.18	382.8	348.82	355.20000000000005	373.27000000000004	358.39	342.29	371.93
15	2491.0	3527.0	618.0999999999999	673.66	802.68	500.68	512.17	655.81	532.29	572.61	665.22	694.5799999999999	645.4000000000001	798.96	695.98	550.1400000000001	640.0	886.22	529.36	722.19	501.96	678.38	509.7000000000001	676.2	594.64	568.44	537.0799999999999	431.3	597.08
16	3631.0	17016.0	553.9	530.88	492.32	457.58000000000004	518.47	534.09	526.76	553.08	533.34	485.08000000000004	543.4000000000001	502.38	481.84	523.73	512.8199999999999	520.74	506.08000000000004	563.15	516.55	541.8199999999999	517.6	553.8	443.83000000000004	537.58	504.20000000000005	507.09999999999997	507.03000000000003
17	21469.0	15300.0	564.3199999999999	501.97999999999996	501.74	535.1	508.52	492.94	509.87	499.63999999999993	473.4	553.89	535.5699999999999	539.7	572.1600000000001	531.5	513.12	518.4	587.8800000000001	551.3	424.78	476.53	485.55	513.1700000000001	476.94	526.88	467.86	469.3	490.57
18	6061.0	11174.0	356.3	386.41999999999996	403.70000000000005	426.98	415.18	401.46000000000004	461.34000000000003	400.08000000000004	425.88	439.46000000000004	386.48	435.58000000000004	463.05	447.42999999999995	399.51	474.06	466.47	397.86	360.88	459.87	446.3	400.45000000000005	402.3	424.28	412.96000000000004	422.7	431.54
19	1483.0	21212.0	370.76	370.86	414.06000000000006	419.9	393.34000000000003	303.34000000000003	447.06000000000006	385.94	382.32	390.02	398.78000000000003	387.65	398.03000000000003	395.28000000000003	388.9	392.96999999999997	385.77	388.94	356.03999999999996	390.91999999999996	434.78	372.18	367.74	317.6	390.86	395.84000000000003	342.7
20	11634.0	13534.0	445.59000000000003	373.27	445.36	445.94	435.78	431.08000000000004	423.28	409.45000000000005	420.57000000000005	422.69	414.54	482.62	511.42	454.31	413.46	429.73	446.70000000000005	409.58000000000004	431.86	418.0	470.78	456.48	410.5	407.79	452.67	402.0	418.88
21	2578.0	11444.0	519.9300000000001	610.54	513.8599999999999	512.1800000000001	667.09	651.44	543.91	601.1600000000001	667.52	589.72	608.86	603.2	649.52	588.9200000000001	485.70000000000005	542.1	645.83	627.85	490.88	539.5799999999999	651.6600000000001	637.78	507.5	655.28	504.27000000000004	558.5	620.36
22	1352.0	8246.0	557.3399999999999	487.46000000000004	521.94	515.4	542.6800000000001	602.63	537.7	521.63	840.88	661.9300000000001	565.89	537.81	631.9200000000001	705.78	677.16	572.78	631.88	541.36	826.19	510.98	695.0699999999999	524.96	455.79	523.24	592.5	495.54	617.54
23	2047.0	7545.0	448.52	553.41	397.58	485.76	496.76	428.66	412.94	449.53	449.26	423.02	408.66	456.54	413.82	424.25	415.46000000000004	406.85	450.78999999999996	408.88	440.24	414.78	440.6	389.24	382.94000000000005	422.52	381.01	431.35	397.26
24	544.0	10167.0	455.14	488.46000000000004	437.08000000000004	417.02	441.77	436.78	440.34000000000003	446.62	448.77	438.14	395.32	489.44	432.31	442.43	460.34000000000003	438.20000000000005	431.38	406.04999999999995	397.13	479.4	477.48	484.39	428.33000000000004	377.73	381.18	473.36	411.41999999999996
25	9650.0	17855.0	386.99	289.78	384.18	438.18	378.24	418.28	396.41999999999996	419.84000000000003	366.32	392.78999999999996	394.17999999999995	276.08000000000004	317.6	466.68	415.52	462.82	409.88	381.53999999999996	240.26	315.68	449.69000000000005	417.55	503.5	441.18	413.02	489.2	406.08
26	7877.0	15546.0	318.1	401.76	510.28000000000003	479.0	481.18	465.49	441.1	439.82	443.34000000000003	489.35	443.67	461.06000000000006	341.1	427.06	457.12	413.89	441.90999999999997	397.36	448.48	440.66	449.19	460.88	426.4	417.04	449.18	432.21000000000004	432.81
27	11870.0	18407.0	657.3	578.5799999999999	570.06	510.96	576.48	557.24	549.08	523.42	597.38	552.31	515.3199999999999	483.64	518.22	568.38	503.2800000000001	558.37	523.67	573.62	634.52	497.09000000000003	560.76	555.46	571.7	582.54	508.46000000000004	649.98	523.3199999999999
28	5254.0	15492.0	262.22	254.56	260.88	257.68000000000006	257.74	251.84	254.68	256.98	255.88	256.1	256.4	248.73000000000002	265.7	254.36	258.73	257.78000000000003	257.75	253.44000000000003	249.58	258.0	251.18	256.98	256.15999999999997	259.29	247.94	255.2	255.10000000000002
29	6816.0	9872.0	369.28	405.24	418.63	421.36	336.58000000000004	386.18	356.26	395.85	370.46000000000004	386.48	437.96000000000004	405.06000000000006	452.3	458.18	390.36	370.1600000000001	359.87	395.28	356.49	431.94	351.20000000000005	383.4	439.76	372.38	363.17	350.09000000000003	380.04
30	9263.0	13433.0	388.63	565.2	602.95	614.02	407.04	569.73	545.9000000000001	545.1	621.63	628.0799999999999	516.46	572.55	494.88000000000005	529.76	543.78	561.2	504.84	597.44	428.87	568.24	546.89	577.64	430.44	563.6600000000001	570.58	513.8399999999999	574.88
31	5380.0	11120.0	379.74	351.08000000000004	356.21999999999997	361.07	338.56000000000006	328.6	415.86	389.88	402.38	373.46000000000004	389.38	344.34000000000003	380.46000000000004	351.3	359.29	422.16	346.53999999999996	340.46000000000004	403.34000000000003	382.66	335.58000000000004	371.58000000000004	432.03999999999996	349.18	380.86	360.46	383.98
32	16721.0	18932.0	378.18	391.06000000000006	403.15999999999997	498.43	562.9399999999999	412.78	441.09000000000003	376.03999999999996	405.72	481.98	434.1	480.78000000000003	441.66	441.74	454.38	438.23	419.16	432.1	459.48	422.32	504.36	408.43000000000006	377.76	407.68	423.09000000000003	368.68	412.07000000000005
33	7457.0	10902.0	411.76000000000005	431.82	419.49	432.21000000000004	449.5	395.94	407.25	429.78	457.22	429.03999999999996	452.65999999999997	436.5	415.47	441.59	393.24	415.18	422.01	435.17	424.28000000000003	430.77	451.8	433.1600000000001	420.3	423.63000000000005	450.3	437.46000000000004	426.01
34	3453.0	7606.0	328.60999999999996	318.1	325.58000000000004	326.05	312.9	321.9	323.3	324.99	322.20000000000005	323.84000000000003	323.03000000000003	318.28	333.54	320.88	319.3	318.89000000000004	324.45	321.98	328.75	316.44	322.48	321.66999999999996	322.62	329.4	323.33000000000004	311.53999999999996	327.05
35	7041.0	15900.0	225.2	228.49	234.3	236.24	239.58	234.48000000000002	234.5	230.36	234.25	234.68	235.41000000000003	234.38	235.60000000000002	233.67000000000002	238.78000000000003	231.15	232.63	231.5	235.5	225.53000000000003	231.5	238.55	229.69000000000003	236.28000000000003	235.35000000000002	231.83	234.68
36	20195.0	21906.0	708.9000000000001	620.87	674.7	643.5799999999999	734.28	613.74	752.6800000000001	698.19	666.96	660.7	741.1800000000001	1005.27	702.1400000000001	720.39	825.8399999999999	742.9300000000001	744.98	776.0799999999999	785.9	787.1	599.14	616.3	673.44	687.88	574.75	766.3900000000001	668.99
37	5445.0	21259.0	405.48	452.8	457.15999999999997	444.06000000000006	662.8599999999999	416.36	514.98	436.48	417.23	464.38	421.28	494.46000000000004	455.29	480.61	509.64	545.5	483.46000000000004	507.81999999999994	484.04	440.24	418.0	397.93	406.63	471.8	519.88	366.8	413.26
38	3770.0	8537.0	440.7	554.4000000000001	400.32000000000005	431.68	413.90999999999997	423.96	386.82	381.52000000000004	461.58000000000004	386.5	392.40999999999997	391.34000000000003	346.14	416.46000000000004	419.32000000000005	399.73	419.94	378.57000000000005	361.82	384.08000000000004	451.30999999999995	355.17	405.8	400.64	406.62	417.56000000000006	390.41999999999996
39	6275.0	14283.0	454.8	439.66999999999996	425.28	524.6600000000001	539.45	479.42	523.0	486.33000000000004	492.29	516.5	514.22	518.3199999999999	557.49	504.78	564.5	454.63	494.48	550.1800000000001	571.8	452.65	450.6	489.59	509.86	504.66	513.1	512.08	504.22
40	18535.0	17250.0	639.4000000000001	489.72	511.09000000000003	564.3800000000001	556.3	547.8199999999999	482.4	442.97999999999996	481.84000000000003	606.36	506.45	477.0	503.44	490.52	448.53	450.91	529.86	505.2	335.53999999999996	550.98	487.6700000000001	493.74	534.12	530.78	515.3199999999999	494.71000000000004	542.5899999999999
41	8611.0	15084.0	452.53999999999996	488.2	474.46	404.0	434.47	419.69	441.9	501.09000000000003	475.0	456.1	450.80000000000007	350.34000000000003	454.28	432.86	445.26	462.88	541.78	388.37	545.63	473.38	435.46000000000004	523.24	443.06	431.0	408.85	522.02	490.43000000000006
42	9449.0	13407.0	368.96000000000004	546.74	514.73	547.16	482.9	493.32	508.24	483.3	595.64	600.6500000000001	544.11	612.0999999999999	653.44	535.9	498.9	607.3399999999999	463.14	496.9	509.87	593.9000000000001	554.53	591.44	576.36	633.22	447.55	573.6200000000001	510.4
43	6892.0	13619.0	331.99	469.06000000000006	381.01	356.36	400.93	400.96	398.29999999999995	387.95000000000005	354.65999999999997	472.85	403.12	400.45000000000005	446.24	392.94	347.69	343.46000000000004	382.67999999999995	408.6	429.56000000000006	386.09	421.86	459.76	325.86	407.76	493.18	375.61	321.20000000000005
44	7334.0	2933.0	497.29999999999995	581.3399999999999	561.02	496.47999999999996	438.74	472.69	487.54	476.20000000000005	359.16	463.28999999999996	535.6800000000001	459.98	496.14	436.72	488.38	484.68	470.20000000000005	515.56	456.53999999999996	455.36	485.44	434.06000000000006	499.56	451.61	443.5	440.20000000000005	467.18
45	20375.0	9236.0	286.94000000000005	283.73	286.65	285.3	291.12	286.18	279.91	284.18	289.49	283.20000000000005	289.69000000000005	290.78	270.63	276.52	278.5	281.76	277.72	288.01	276.71	292.44	297.34000000000003	281.58000000000004	296.15999999999997	286.99	286.02	287.38	285.46999999999997
46	15814.0	15865.0	393.64	439.34000000000003	482.24	490.92	529.6800000000001	445.36	402.94	484.5	420.81	385.71000000000004	452.99	408.08	498.59999999999997	463.64	426.5	431.68999999999994	410.28000000000003	430.75	366.63	477.36	433.97	456.20000000000005	467.52	441.88	438.56000000000006	444.29999999999995	455.56000000000006
47	8661.0	13437.0	569.44	479.70000000000005	483.23	430.91999999999996	510.94000000000005	459.79	462.56000000000006	529.76	556.79	483.05	530.24	469.76000000000005	498.4	503.58000000000004	524.62	496.68	557.3	511.90000000000003	563.98	501.56	503.18	525.6400000000001	540.1600000000001	515.29	500.40999999999997	531.03	552.1800000000001
48	6062.0	21192.0	440.22	475.1	468.96000000000004	454.26	424.40000000000003	461.27000000000004	409.8	461.9	474.15000000000003	454.42	423.93	456.79999999999995	450.86	436.40999999999997	484.23	462.9	444.62	453.76	460.85	439.5	445.38	461.04	452.26	448.0	475.76	431.23	433.28000000000003
49	6941.0	8941.0	319.42	316.6	339.78	328.68	336.28	315.93	327.03999999999996	329.74	336.42	303.12	314.8	393.87	354.32	316.16	348.44	350.68000000000006	305.24	330.88	321.26	374.84000000000003	339.12	328.4	345.70000000000005	341.59000000000003	312.64	323.82000000000005	352.98
50	6524.0	11537.0	597.4000000000001	595.4200000000001	464.53999999999996	571.25	561.8399999999999	438.16999999999996	440.94	399.71999999999997	504.82	506.65	476.06000000000006	421.34000000000003	273.6	514.8	419.59999999999997	414.09999999999997	444.56	421.12	396.98	368.33	416.58000000000004	445.91999999999996	439.25999999999993	466.04	429.08000000000004	397.68	498.26
51	4564.0	11294.0	351.03000000000003	374.37	342.41	416.96000000000004	351.35	367.56000000000006	353.58000000000004	349.40000000000003	348.28	366.52000000000004	404.99	342.09999999999997	408.28000000000003	361.48	375.18	351.57000000000005	398.76	444.03999999999996	329.83000000000004	416.64	387.86	353.86	386.28	348.48	351.79999999999995	349.68	358.14
52	2466.0	9730.0	479.76	485.69	521.98	505.92	489.13	493.26	520.38	479.63	603.02	457.32	457.07	507.69	459.75	592.1800000000001	546.14	496.08000000000004	553.1	533.99	497.13	538.1600000000001	527.48	400.17	553.56	460.79	611.73	471.42	575.4399999999999
53	1299.0	5800.0	387.18	425.18	425.96000000000004	486.61999999999995	575.1700000000001	408.84000000000003	391.52	429.67	385.28	415.69000000000005	450.12	477.36	409.37	505.92	580.72	380.05	413.88	427.53999999999996	513.12	403.70000000000005	524.0	407.74	387.91	404.38	434.96000000000004	398.06999999999994	435.6
54	6555.0	7178.0	271.9	290.28	276.18	279.36	272.58	280.72	276.81	278.98	273.28	284.27	272.88	277.81000000000006	280.56	284.18	276.69	271.64	282.38	281.58000000000004	284.28	279.02	273.57000000000005	280.8	275.39	276.98	263.68	286.69000000000005	279.76
55	21920.0	9487.0	541.75	585.5	554.88	525.48	525.36	560.68	501.49	571.33	459.82000000000005	581.4200000000001	527.04	484.68	517.2	574.48	489.41	528.81	556.62	581.39	559.7	550.72	562.3100000000001	500.34000000000003	474.77	476.9	544.23	532.4000000000001	586.88
56	10337.0	11161.0	425.58000000000004	385.88	402.3	366.74	376.08000000000004	455.08000000000004	420.28	397.0	437.39	415.84	405.54	505.40000000000003	353.92999999999995	415.6	423.53	442.06000000000006	373.98	406.26	349.68	433.61	384.4	401.04999999999995	432.03999999999996	431.38	439.23	441.91999999999996	356.3299999999999
57	2526.0	14445.0	700.6600000000001	579.78	550.5799999999999	591.1400000000001	501.49	624.02	506.61	550.28	530.71	632.09	502.78000000000003	494.83000000000004	488.36	599.96	574.9	554.78	589.6800000000001	559.44	527.57	824.1199999999999	588.0699999999999	532.55	563.44	520.48	614.26	457.78	514.4
58	451.0	11661.0	435.65999999999997	387.91999999999996	442.74	418.62	369.96000000000004	388.70000000000005	409.28	393.58000000000004	395.91999999999996	363.04	372.91999999999996	361.56	429.64	397.48	423.17	388.68	459.64	397.95000000000005	502.78000000000003	400.99	395.16	386.48	392.42	392.32	430.4	382.58000000000004	410.04
59	1455.0	6210.0	487.34	437.53	386.53000000000003	440.0	357.12	400.77	469.64	407.16999999999996	415.61	452.78000000000003	438.46000000000004	388.41	476.1	374.79	396.72	373.03999999999996	381.89000000000004	412.36	453.87	428.72	424.32000000000005	424.78	398.76	419.08000000000004	399.98	373.65	398.81999999999994
60	7864.0	11479.0	371.53999999999996	340.56000000000006	286.36	458.96000000000004	385.38	400.12	363.99	401.88	383.08000000000004	364.70000000000005	411.26	399.44	295.3	388.43	334.5	372.86	407.9	381.19000000000005	448.98	329.78	289.03999999999996	365.76	373.18000000000006	375.41999999999996	382.78	340.49	390.28
61	7623.0	16419.0	437.34999999999997	494.88	410.64	415.13	510.1	458.25	467.6	488.21	489.30999999999995	437.18	466.78000000000003	447.65	488.45	430.34000000000003	446.28	469.02	457.28	472.07000000000005	400.6	428.01	456.49	478.92	456.2799999999999	442.34000000000003	457.86	457.34	394.88
62	5338.0	8425.0	560.46	498.35	572.78	663.14	570.1800000000001	495.78000000000003	594.37	547.6800000000001	572.01	492.76000000000005	544.76	471.18	522.15	482.91999999999996	474.14	435.53000000000003	471.51	456.6	528.95	473.78	453.71000000000004	467.1	552.4000000000001	607.26	444.46999999999997	478.13	462.88
63	7608.0	15140.0	437.6	446.08000000000004	433.16	378.03	330.62	447.88	434.21000000000004	397.98	468.1	461.88	374.20000000000005	488.62	340.47	399.0	429.78999999999996	411.11	491.48	443.35999999999996	430.77	462.03999999999996	490.74	460.22	441.03999999999996	491.54	461.84000000000003	410.88000000000005	455.78
64	19777.0	172.0	488.2	373.12	394.6	486.26	389.70000000000005	366.46000000000004	492.86	396.6	349.62	487.96	378.1	336.3	477.01	345.20000000000005	349.72	505.08000000000004	394.58000000000004	404.94	500.22	359.48	374.15999999999997	478.84000000000003	322.34000000000003	377.08	486.09000000000003	392.3	332.78
65	15062.0	16979.0	482.8	446.78000000000003	520.96	552.3	521.1700000000001	513.0	539.06	508.73	500.22	482.56	523.69	470.26	496.58000000000004	507.22	465.1600000000001	556.16	463.18	499.95	488.48	589.24	519.9200000000001	525.12	500.99	504.41	554.05	551.6600000000001	521.1600000000001
66	11945.0	22698.0	496.75	412.24	362.76	345.03999999999996	397.88	372.36	370.98	394.76	376.55	422.48	429.66	427.81000000000006	409.3399999999999	382.52	386.02	393.5	378.64	407.29	344.09	465.34000000000003	408.6	388.28999999999996	405.03999999999996	327.12	471.52	378.37	370.78
67	6677.0	7355.0	275.3	274.5	273.78000000000003	285.03999999999996	275.7	278.98	282.0	280.5	280.39	276.84	281.28	273.4	278.1	277.46000000000004	273.94	287.86	277.18	278.58000000000004	275.18	281.3	274.5	281.97	276.23	280.04	273.04	274.14	281.33000000000004
68	7407.0	13255.0	497.16	405.22	427.44	481.66	482.6	446.93000000000006	483.71000000000004	449.32	351.9	479.26	507.68	391.75	520.78	476.09000000000003	473.01	580.5	548.51	524.38	297.58000000000004	535.0	463.03000000000003	537.08	474.38	359.86	393.88	468.84000000000003	435.27
69	2485.0	3325.0	605.77	600.5799999999999	597.5699999999999	568.5	580.82	522.9200000000001	588.9	572.36	580.94	592.8	646.53	493.90999999999997	620.1199999999999	683.3	473.96	489.88	614.17	514.98	555.72	683.86	631.86	698.04	792.49	620.25	529.35	665.06	508.15999999999997
70	8572.0	14009.0	228.9	251.88	419.88	377.08	496.15	378.8	418.57	400.65999999999997	373.24	348.37	406.76	384.66999999999996	335.68	406.15999999999997	368.22	306.94000000000005	332.64	322.98	435.02000000000004	500.89	328.78	374.20000000000005	336.59000000000003	363.5	357.96	419.94000000000005	374.1
71	10894.0	11507.0	364.4	370.38	432.86999999999995	367.3	421.02	412.54	399.96000000000004	366.15000000000003	428.6	387.6	399.6	382.57	409.28	360.68	414.73	413.78	390.40000000000003	441.56000000000006	303.48	383.6	374.12	397.84000000000003	423.88	341.8	384.18	341.32	398.32000000000005
72	2806.0	21337.0	330.3	294.65999999999997	312.05999999999995	348.77	341.98	331.37	336.8	331.18	329.29	307.70000000000005	333.28	301.83	319.18	292.72	330.70000000000005	337.16	311.02	324.9	343.53	342.51	344.14	327.86	335.98	357.85	294.43	295.89	318.28
73	6328.0	10467.0	408.82	431.28	356.58000000000004	382.25	343.06000000000006	393.58000000000004	406.86	405.53999999999996	363.56	359.26	390.05	471.48	444.66	376.32	356.56	376.0	398.70000000000005	337.96000000000004	366.8499999999999	305.46000000000004	420.78	416.41	469.53999999999996	422.79	397.70000000000005	426.06000000000006	370.73
74	8323.0	10657.0	514.78	466.54	455.26	450.13	446.64	495.78	458.5	450.74	483.28	416.43	451.48	497.59000000000003	402.15	397.8	416.66	421.53	455.52	466.56	492.95000000000005	455.74	458.37	492.72	452.09000000000003	452.30999999999995	506.65	496.82	448.27
75	13049.0	22539.0	660.6	438.6	509.16	467.88	540.2	620.38	617.1800000000001	636.6800000000001	584.66	630.3	570.3299999999999	534.5	671.1200000000001	568.98	536.7	557.7600000000001	635.51	651.0899999999999	674.56	533.5699999999999	564.25	691.07	579.28	593.22	607.3399999999999	478.48	521.33
76	5692.0	10929.0	437.71000000000004	492.0	429.78	483.71000000000004	489.04	536.06	513.8	440.39	448.28	426.18000000000006	482.53999999999996	444.92999999999995	512.78	446.64	422.70000000000005	423.14	494.53999999999996	477.74	524.22	417.89	391.28999999999996	469.26	494.2	409.70000000000005	422.02	429.08000000000004	399.21000000000004
77	21401.0	12529.0	428.74	411.5	377.4	486.0	420.34000000000003	370.97	425.68	435.28	394.36	456.01	424.26	465.64	461.15000000000003	380.78	393.1	433.64	434.08000000000004	405.44	406.44000000000005	472.06	459.78000000000003	419.38	432.06	456.13	412.22	430.78999999999996	433.3
78	6035.0	9656.0	428.03	386.96000000000004	462.85	411.2	379.96000000000004	451.74	398.98	430.45	497.4	434.57	384.67	472.16	361.9	438.82	440.45	383.72	405.54	413.43	386.8	393.74	396.77	398.04	501.44	396.15999999999997	344.12	417.58	449.4
79	7660.0	14730.0	346.4	471.65	433.14	245.5	354.56	429.85	371.62	357.78	379.18	369.22	410.25	396.03000000000003	306.71999999999997	348.64	419.24	355.08000000000004	394.08000000000004	409.06000000000006	360.86	366.84	424.76	404.6	370.28999999999996	378.88	399.28	530.58	456.62
80	7099.0	13573.0	456.36	464.54	415.55	408.49	424.24	435.76	448.56	457.04	458.15999999999997	401.95	394.04	445.1	354.49	514.7	392.05	500.22	380.78	406.5	461.04	467.8	536.1500000000001	440.76	417.4	507.36	461.05999999999995	402.08000000000004	436.89
81	9504.0	12279.0	430.79	403.58000000000004	396.89000000000004	456.64	467.28000000000003	456.17	384.44000000000005	390.3	462.38	396.86	386.84000000000003	443.37	353.68	390.25	358.58	475.14	475.44000000000005	349.85	436.56	400.56	504.62	411.11	420.34000000000003	477.3	317.98	425.96000000000004	476.68000000000006
82	7806.0	14593.0	324.4	422.18	507.44	432.9	504.8	434.23	360.69000000000005	516.6	610.71	564.5400000000001	457.42	536.6600000000001	363.65	369.96000000000004	514.1600000000001	470.84000000000003	455.58000000000004	474.57000000000005	494.86	493.72	543.48	557.94	534.36	523.62	567.94	556.4000000000001	486.02
83	7773.0	11122.0	410.02	402.12	389.72	269.14	379.37	396.93	408.90000000000003	375.55	357.78	411.28	380.94000000000005	388.9	403.70000000000005	395.26000000000005	387.11999999999995	441.52	375.68	412.07	283.02	510.7	422.38	389.86	375.79	410.38	317.74	416.38	401.3
84	4256.0	8771.0	362.46000000000004	349.9	375.97	377.38	327.64	364.19000000000005	367.93	336.5	378.59	382.28	368.11	427.96	360.29	370.23	374.61	401.55	352.76	398.6	370.57	337.18	310.16	345.78999999999996	384.91999999999996	357.20000000000005	331.54	364.78	352.8
85	3642.0	15298.0	366.14	521.5799999999999	432.43	430.03999999999996	378.66	417.20000000000005	420.84	464.6	368.86	457.8	440.0	440.96000000000004	354.78	488.8	423.83	494.90999999999997	439.68	488.65	447.9	332.96000000000004	438.23	428.48	439.52	405.36	303.15999999999997	417.04	393.90999999999997
86	17613.0	12561.0	340.86	332.36	395.78	457.8	455.8	419.53999999999996	479.24	464.01	387.08000000000004	472.96000000000004	398.6	455.62	365.15000000000003	462.64	506.4	537.6800000000001	410.36	401.95000000000005	522.59	421.18	364.49	374.62	480.78000000000003	413.9	433.9	423.98	409.64
87	1456.0	13735.0	439.44	496.72	504.53	514.1	477.4	507.34000000000003	495.62	516.5	499.66	443.98	431.88	444.48	432.91	517.32	459.65	493.19	466.61	522.2	423.70000000000005	552.3	471.26	548.78	474.56	487.87	543.3399999999999	479.66	525.25
88	4900.0	15417.0	304.8	345.29999999999995	308.58000000000004	361.14	385.78999999999996	336.25	343.78	310.1	302.62	378.35	318.78	296.61	348.21	321.92	327.1	314.32	321.04	272.9	253.08	320.14	282.77	367.1	380.15	336.19000000000005	316.96000000000004	379.92	316.9
89	8993.0	1860.0	319.88	439.86	465.6	401.26	444.69	441.72	431.87	473.65	490.76	388.66	449.13999999999993	415.3	461.36	494.94	505.38	544.83	437.26	551.44	541.77	531.78	458.22	524.64	495.82000000000005	423.6	463.54	468.1	480.88
90	18247.0	13569.0	392.01	509.20000000000005	396.56000000000006	423.87	482.12	449.78	559.04	496.40000000000003	459.08000000000004	319.3	506.69	352.97	504.39000000000004	485.56	435.38	474.57000000000005	499.79	525.66	509.1	439.18	479.07000000000005	410.33000000000004	494.32000000000005	385.09000000000003	438.22999999999996	449.8	448.96000000000004
91	12475.0	21246.0	478.6	424.65999999999997	434.6	521.9300000000001	493.98	489.45	359.03000000000003	452.64	390.34000000000003	438.12	523.8399999999999	538.29	429.79	473.98	423.17999999999995	338.67	450.78999999999996	421.06	389.01999999999987	300.12	447.22999999999996	442.77	386.72	435.64	378.28	279.79	438.81
92	18284.0	18012.0	388.65999999999997	347.13	360.42999999999995	380.38	345.48	368.28	343.95000000000005	372.4	351.94	402.05	400.66999999999996	373.36	360.92	404.22	362.77000000000004	322.9	361.48	367.90000000000003	379.96000000000004	350.34000000000003	402.34000000000003	356.08000000000004	376.57	335.46000000000004	332.5	352.82000000000005	366.65000000000003
93	6258.0	13496.0	299.9	382.48	396.54	530.76	403.33	427.8	391.66	485.96000000000004	406.71000000000004	466.96	520.28	451.88	556.3000000000001	340.82	482.15999999999997	379.86	472.0	466.28000000000003	444.84000000000003	409.65000000000003	456.1	389.46000000000004	413.4	499.68	416.69	361.9	495.18
94	7700.0	8045.0	321.22	410.1	373.66999999999996	413.72	424.48	388.14	348.28	402.43	405.39	362.56	466.15999999999997	442.4	407.88	407.1	397.46000000000004	358.94	448.98	382.03999999999996	375.70000000000005	382.55	351.89000000000004	397.78999999999996	408.28	432.29	378.3	381.14	396.36
95	2528.0	1859.0	629.94	614.36	481.84	434.76	653.96	654.22	656.3	507.71000000000004	644.72	391.3	461.54	384.97	415.1	561.2	509.08	561.92	670.43	728.04	685.6700000000001	605.4000000000001	633.6300000000001	703.2	745.14	573.76	455.82000000000005	313.38	681.92
96	5996.0	15826.0	237.28000000000003	245.2	249.03	249.16	242.57	243.28	247.74	244.4	244.6	243.22	239.34	235.94000000000003	238.38	242.4	244.93	235.98000000000002	239.33999999999997	238.21	236.33	242.0	243.54	252.88000000000002	239.86	255.39	243.36	237.72	243.18
97	21789.0	6326.0	535.38	564.6	526.48	570.25	501.21999999999997	487.03999999999996	510.96	517.0	535.36	519.78	526.11	626.1800000000001	416.27000000000004	488.36	516.0	385.61	473.36	490.56	480.91999999999996	523.98	566.9200000000001	523.39	483.31999999999994	516.1200000000001	445.08000000000004	504.18	477.94
98	5285.0	11605.0	282.88	278.0	381.28	372.78	362.87	389.88	372.08000000000004	386.46000000000004	355.26	370.0	326.0	308.03999999999996	378.28	365.58000000000004	385.76	364.67	373.61	315.08000000000004	329.3	358.08000000000004	314.70000000000005	399.82	375.12	383.5	392.28000000000003	381.7	377.63
99	18837.0	18140.0	496.98	614.9200000000001	486.68	487.42	488.88	509.15999999999997	429.14	512.4200000000001	481.72	446.53000000000003	503.72	488.3	502.86	493.19000000000005	520.62	488.16	486.6	448.08000000000004	442.99	555.4000000000001	486.05	512.12	517.46	475.11	545.24	493.44	492.34000000000003
100	8211.0	1971.0	535.31	483.12	423.69	442.79	313.5	449.82	465.64	467.86	487.26	505.36	464.84000000000003	482.0	451.01	470.05	392.68	476.03	447.22	428.31999999999994	494.18	523.4200000000001	497.4	259.58000000000004	428.1	399.76	441.09999999999997	438.96	397.16999999999996
101	4494.0	9420.0	447.03999999999996	384.02	423.53000000000003	473.38	436.16	400.26	445.98	436.02	568.78	423.77	434.27	402.1	430.02	382.73	444.83000000000004	351.0	472.73	396.09999999999997	307.46000000000004	501.39	422.48	439.6	459.46	443.1	380.35	442.28	418.57000000000005
102	5814.0	12356.0	453.9	499.86	441.9	556.44	505.9	457.58000000000004	435.33	482.58	499.15000000000003	428.02	523.11	523.8	456.66	524.08	410.15	512.6500000000001	447.98	439.22	537.0	496.24	525.1800000000001	505.28999999999996	406.78	466.44	413.06	510.19999999999993	476.70000000000005
103	6824.0	18011.0	461.3	584.24	461.81000000000006	486.66	447.36	426.62	505.46000000000004	449.8	466.02	393.88	423.02	328.48	342.1	343.03	453.4	415.56	413.53	401.68	340.70000000000005	405.0	349.16999999999996	435.74	414.67	435.76	407.36	407.74	476.64
104	723.0	8686.0	407.16	446.20000000000005	427.81000000000006	443.77	474.28	421.02	503.08000000000004	405.96000000000004	417.17	518.29	449.9	462.57	485.81000000000006	475.43	448.64	458.17	511.48	489.8	438.1	433.88	472.6	386.51	502.64	440.33000000000004	519.06	445.23	470.02
105	9486.0	9910.0	394.88	396.62	417.38	414.88	448.79	511.78000000000003	454.24	436.34000000000003	496.92	383.1	385.07	411.74	437.59000000000003	428.77	475.64	424.23	462.08000000000004	469.65999999999997	402.94000000000005	399.29	471.94	409.26	462.72	413.38	356.78	420.78	374.32
106	6559.0	19769.0	454.34000000000003	516.53	556.75	523.72	533.72	592.29	563.03	506.31	570.51	556.24	522.2	546.3	535.5799999999999	535.1	571.94	551.96	532.1800000000001	504.39	428.58000000000004	435.48	558.44	478.96000000000004	586.88	621.14	592.2	449.54	481.18
107	7378.0	9577.0	428.38	432.26000000000005	425.82	431.19	481.78	450.19000000000005	408.93	397.06000000000006	400.18000000000006	425.08000000000004	435.95000000000005	430.96000000000004	470.78000000000003	405.98	415.01	396.45000000000005	468.38	402.56000000000006	389.04	401.15000000000003	412.86	411.65	428.62	417.38	367.44	378.09000000000003	418.3
108	21296.0	15801.0	544.03	623.3399999999999	524.14	511.04999999999995	559.3	539.4200000000001	517.6800000000001	531.72	516.35	524.22	489.28999999999996	500.68	495.90999999999997	538.71	477.6	516.1	551.2800000000001	472.82	567.8199999999999	521.15	486.46000000000004	537.98	547.38	558.96	522.8399999999999	512.5	566.72
109	10728.0	13080.0	464.08000000000004	429.83	376.96000000000004	418.64	439.94	423.14	371.70000000000005	387.39	404.78	420.67999999999995	408.65999999999997	427.68	442.5	400.68	422.78	397.85	381.72	309.96000000000004	470.87	484.4	323.08000000000004	358.82	439.15000000000003	350.1	376.24	345.1	344.15
110	8815.0	10534.0	410.0	340.38	381.57	336.1	404.13	337.23	352.35	370.34000000000003	298.65999999999997	322.96	306.98	341.37	374.52	319.48	360.32000000000005	452.34	319.95000000000005	316.88	276.70000000000005	424.61	397.16	329.79	377.3	317.72	274.6	366.5	305.98
111	1220.0	6416.0	385.22	352.08	437.9	382.46000000000004	430.35	399.41999999999996	378.68	330.09	340.15999999999997	407.70000000000005	381.34999999999997	419.52	342.40000000000003	360.45	405.77	371.41999999999996	361.08000000000004	380.17999999999995	384.67	381.46000000000004	362.67999999999995	375.92	355.66	407.72	326.94	374.18000000000006	396.68
112	11629.0	15409.0	385.68	373.91999999999996	347.98	354.1	422.20000000000005	352.29	414.16	378.41	260.7	374.78	405.72	359.5	584.6800000000001	368.4	408.22	360.20000000000005	338.08000000000004	382.08000000000004	335.97	243.58	451.88	388.84000000000003	434.55	363.99999999999994	296.4	368.64	394.73
113	6426.0	20836.0	507.84000000000003	520.5	437.79999999999995	501.78999999999996	544.04	539.8199999999999	552.3	528.48	480.25	515.8599999999999	544.95	492.7	513.34	514.83	547.48	518.36	531.9	473.28	499.34	519.0	553.78	545.44	511.03000000000003	491.6	485.98	513.6800000000001	507.36
114	4558.0	13608.0	451.51	467.48	356.88	517.38	409.38	441.12	504.33000000000004	415.14	478.4	421.2	539.01	422.5	438.66	365.3	466.08000000000004	426.76	487.59000000000003	494.29	482.13	367.14	440.6	439.31	477.88	426.18	475.33	419.38	362.38
115	4863.0	16383.0	437.34000000000003	257.14	387.83	408.81	463.84000000000003	456.24	439.88	438.3	434.99	478.57000000000005	437.70000000000005	415.65999999999997	514.05	420.8	460.78	463.39	444.61	419.94	407.48	423.08000000000004	464.66	385.13	481.58000000000004	470.28	558.4000000000001	446.44	463.58000000000004
116	16500.0	12734.0	405.54	395.34000000000003	391.56000000000006	284.72	421.66	468.28	341.64	402.38	367.38	460.46	325.94	379.36	402.34000000000003	469.65999999999997	363.41999999999996	427.82	393.28	313.5	466.18000000000006	346.28	469.66999999999996	316.56	336.3	404.02	494.78000000000003	417.17	432.78
117	22399.0	9253.0	576.02	642.26	542.04	547.98	592.8399999999999	533.5799999999999	599.59	596.4100000000001	625.4000000000001	596.78	617.9000000000001	476.98	505.44	571.26	486.92	600.1800000000001	560.16	569.78	424.6	446.38	433.47999999999996	592.13	519.22	579.74	540.74	557.52	554.51
118	6859.0	9209.0	374.66	320.34000000000003	338.35	342.57000000000005	359.79	377.48	368.70000000000005	357.15999999999997	369.48	330.39	309.44	289.38	321.35	320.08000000000004	335.90000000000003	338.18	332.62	307.29	379.68	380.18	319.84000000000003	354.66	280.88	319.3	305.48	327.64	339.82
119	10444.0	12045.0	451.16999999999996	385.64	334.4	389.52	332.74	361.63	380.55	360.5	421.52	395.18	372.5	337.27	406.75	393.8	335.14	341.90999999999997	342.6	350.78	342.9	447.9	424.64	356.08000000000004	346.71000000000004	331.65999999999997	307.6	358.38	381.85
120	8128.0	8022.0	531.21	494.16	500.70000000000005	462.02000000000004	390.38	485.5	464.06	464.58000000000004	480.94	469.09000000000003	419.84000000000003	531.54	433.8	434.38	487.22	458.44999999999993	489.66	476.18	279.6	496.55	408.48	479.34000000000003	441.79	462.3	546.3499999999999	432.32	407.38
121	21976.0	9076.0	578.9200000000001	486.21999999999997	575.3399999999999	459.49	445.58000000000004	452.72	469.67999999999995	435.06000000000006	492.88	519.23	564.01	415.25	462.18	418.7	434.96000000000004	530.13	459.46000000000004	490.31	477.1	509.76000000000005	419.39	430.66	424.75	486.26	523.8	567.3399999999999	530.9000000000001
122	11697.0	15761.0	461.08000000000004	435.73	493.31	352.56000000000006	382.64	455.66	439.88	489.93999999999994	635.48	526.28	504.72	559.5	374.88	468.8	501.78	435.56	534.1	564.48	333.18	536.0	546.78	406.49	496.78000000000003	437.70000000000005	458.68	576.88	537.06
123	4678.0	11475.0	743.6	601.6700000000001	419.94	645.99	407.86	523.6	441.8	505.7	434.72	600.8299999999999	549.6	529.38	738.5799999999999	543.23	596.12	447.23	601.46	442.12	270.68	630.1800000000001	370.47	583.06	533.92	489.45000000000005	471.94	523.7	455.9
124	7785.0	14388.0	292.48	474.06000000000006	454.16	371.98	405.07	423.23	502.88	367.24	424.1	328.5	360.25	303.65	354.26	428.43	394.46	310.68	320.83000000000004	292.4	388.90000000000003	283.3	315.0	305.86	388.17	425.8	277.14	338.13	348.66
125	9624.0	1843.0	682.9200000000001	544.56	482.99	620.6800000000001	581.9100000000001	518.89	513.53	571.77	548.88	603.6800000000001	596.49	567.02	478.75	476.32	553.5	584.06	517.96	491.1	441.19	594.34	451.62	503.90999999999997	478.20000000000005	507.78000000000003	642.4000000000001	555.4000000000001	548.59
126	5843.0	13781.0	599.8399999999999	488.01	543.2900000000001	593.66	593.23	554.98	464.28	484.8	493.8	523.46	461.06000000000006	461.48	489.24999999999994	505.61999999999995	516.54	528.86	460.09999999999997	476.66	453.84000000000003	487.91999999999996	519.45	513.77	406.48	525.03	472.34000000000003	517.98	557.97
127	11619.0	17929.0	501.09000000000003	520.96	391.47	379.56000000000006	408.65999999999997	436.64	428.48	409.31	433.98	425.58000000000004	392.07	421.23	254.10000000000002	462.52000000000004	441.75	405.22	426.86	441.3	441.91	393.69	455.31000000000006	486.24	480.08000000000004	528.4200000000001	384.48	429.48	491.36
128	4616.0	9892.0	460.71	458.92	499.06000000000006	407.32	562.64	466.14	419.35999999999996	509.14	499.52	462.29999999999995	483.75	456.89	535.62	515.85	478.44	472.3	440.0	369.70000000000005	487.99	531.02	523.28	514.36	460.84000000000003	409.09000000000003	492.40000000000003	416.56	518.1800000000001
129	659.0	11132.0	455.40999999999997	468.59999999999997	437.02	481.64	519.96	511.47	492.58	473.79	440.53	465.59	490.82	472.74	512.45	424.19	503.38	499.81	412.70000000000005	527.0	412.18	471.68	463.08	476.8	433.23	436.97	464.67	523.08	479.15999999999997
130	9897.0	8606.0	515.94	529.8	524.38	581.5	507.3	511.40000000000003	531.46	520.39	523.78	515.3	537.38	518.49	448.4	557.26	558.0699999999999	466.32	533.03	583.4200000000001	573.06	558.42	456.36	507.53999999999996	527.72	520.1600000000001	540.7	530.8900000000001	482.52
131	22169.0	21541.0	350.86	325.53999999999996	330.28	368.65	308.9	304.72	316.98	314.11	295.03999999999996	326.4	321.46000000000004	352.11	326.44	322.18	331.58000000000004	319.75	333.22	346.28	279.84000000000003	289.1	294.69999999999993	312.08	329.1	342.86	279.58000000000004	313.53999999999996	309.29999999999995
132	6483.0	18321.0	537.06	544.6	592.22	523.08	628.72	600.1200000000001	577.4100000000001	513.4000000000001	550.96	484.73	577.53	708.1200000000001	577.02	597.24	592.26	623.56	519.04	425.46000000000004	553.62	479.58000000000004	584.6500000000001	617.74	508.04	595.46	581.8000000000001	559.89	514.28
133	8748.0	10328.0	372.08000000000004	335.70000000000005	364.15000000000003	380.90000000000003	414.96000000000004	345.69	341.76	349.02	450.1	343.68	362.97	361.18000000000006	366.57000000000005	351.6	355.06000000000006	336.15000000000003	370.01	349.5	316.1	344.34000000000003	374.67999999999995	363.06	337.46	374.58000000000004	337.13	336.63	374.32
134	5645.0	11935.0	501.34	469.72	442.74	422.96999999999997	413.62	449.3	501.58000000000004	429.17	479.83000000000004	420.23	302.5	451.42	465.97	424.36	443.76	465.33000000000004	481.0	384.88	513.98	412.86	377.09	499.46000000000004	552.96	471.18	424.1	512.79	419.54
135	5700.0	13203.0	421.83000000000004	541.29	396.15999999999997	376.03999999999996	461.33000000000004	452.78	368.05999999999995	427.38	474.64	417.24	409.78000000000003	456.66999999999996	489.28000000000003	438.16	418.31	428.04	409.02000000000004	397.06	392.76000000000005	373.15999999999997	410.88	443.36	378.74	457.86	425.76	465.34000000000003	408.88000000000005
136	6265.0	14818.0	455.88	496.8	489.71000000000004	443.58000000000004	469.06	530.7299999999999	554.74	478.36	447.89	474.20000000000005	461.84000000000003	434.3	447.20000000000005	473.67	464.82	447.28	505.61	520.1800000000001	434.24	484.37	514.95	524.39	479.4	456.46	479.66	470.19	472.15999999999997
137	22382.0	7163.0	477.24	527.89	483.66	494.68	511.08	483.95000000000005	539.86	554.28	458.84	397.40999999999997	487.7	468.04999999999995	366.68	399.34000000000003	450.69	493.69	489.88	431.3	509.8	422.66	446.53999999999996	506.82	459.12	509.41999999999996	508.32000000000005	400.68	458.24
138	4858.0	13770.0	370.9	317.0	354.16	457.84	428.06000000000006	402.88	351.4	364.36	437.11	519.65	484.26	406.78	455.6	436.38	384.8	254.3	418.26	405.37	398.16	398.78	438.5	370.18	395.08000000000004	494.58000000000004	391.38	322.91999999999996	417.08000000000004
139	737.0	8456.0	415.64	347.93	403.76	435.15999999999997	390.19999999999993	370.03999999999996	366.52	381.91999999999996	389.41999999999996	426.57	376.17	366.98	413.33000000000004	393.25	437.1	388.98	338.01	381.18	356.28	344.47	365.89	410.83000000000004	379.81	454.56	361.05	400.58000000000004	396.48
140	7878.0	8730.0	405.6	391.9	353.34	359.6	314.91999999999996	409.82	381.68	401.5	397.08000000000004	342.23	359.45	380.3	373.08000000000004	397.79	387.96000000000004	379.08000000000004	374.66	349.26	397.08000000000004	402.98	394.52	370.98	383.98	368.63	337.89000000000004	366.76	367.82
141	5323.0	7338.0	330.03999999999996	391.08	384.59	407.8	343.98	367.78	375.48	381.5	370.93	388.20000000000005	374.01	399.14	327.66	432.08000000000004	378.55	515.97	401.96000000000004	406.3	392.94000000000005	271.18	340.4	375.78	474.06000000000006	343.82	365.5	310.32	407.01
142	5740.0	800.0	392.03999999999996	446.8	461.56000000000006	425.73	451.16999999999996	441.46000000000004	476.96000000000004	452.88	500.78	536.2	428.28	633.42	522.78	510.75	480.74	578.76	527.49	452.18	431.48	328.18	504.61	528.8100000000001	674.3000000000001	645.3	544.5	497.62	396.53000000000003
143	734.0	4384.0	642.01	573.3399999999999	660.7	464.96000000000004	592.21	583.74	490.48	481.65	497.71000000000004	599.64	560.83	525.86	625.4300000000001	566.9200000000001	546.49	392.58000000000004	553.54	426.46	444.56	471.14	671.97	598.0	542.69	522.58	494.88	621.3499999999999	622.4000000000001
144	1471.0	13920.0	398.66999999999996	425.38	424.86	448.02	464.62	465.14	506.68999999999994	425.47	429.20000000000005	468.67999999999995	436.33000000000004	426.28	418.67	413.24	443.4	486.34	450.58000000000004	406.9	392.08000000000004	459.9	418.88	437.38	457.46000000000004	427.28	450.78000000000003	433.78	468.17
145	8417.0	3977.0	413.5	474.14	434.84000000000003	406.48	466.47	444.26000000000005	463.48	444.06	468.0	463.94	454.85	379.29	400.0	405.22	457.42999999999995	438.03999999999996	425.38	426.28	346.48	477.38	447.92	401.34000000000003	496.44	459.53	459.68000000000006	470.25	451.62
146	17797.0	9468.0	534.29	681.19	549.3399999999999	553.13	603.98	586.64	532.1	528.28	602.38	508.71999999999997	574.1199999999999	506.84	559.0799999999999	562.8399999999999	622.38	550.52	581.56	569.39	479.15999999999997	539.24	524.52	534.86	516.78	610.3399999999999	521.78	576.28	594.2
147	10095.0	12253.0	355.74	402.01	331.1	365.48	333.41999999999996	365.75	439.47	409.22	366.28	397.05	355.38	393.88	398.46000000000004	494.6199999999999	358.09	477.72	414.08	321.71000000000004	493.6	389.56000000000006	479.16	408.48	405.75	463.08000000000004	429.53999999999996	436.2	344.65
148	6815.0	18648.0	497.9	566.69	469.78	509.11000000000007	554.12	507.24	521.6600000000001	525.0	478.28000000000003	510.7	539.04	494.47	491.8	536.5699999999999	535.6800000000001	536.1800000000001	526.2	473.32	516.45	559.6800000000001	559.3199999999999	525.38	527.74	510.2	461.68	550.44	572.08
149	22442.0	13052.0	388.65999999999997	534.9000000000001	492.36	420.4	381.36	474.6	430.52000000000004	415.38	461.52	459.44	460.28	455.55	518.3	404.0	476.0	438.56	455.67	435.65	460.87	456.08000000000004	454.65999999999997	410.92	437.18	454.82	441.97	413.02	418.56
150	3645.0	6126.0	489.40999999999997	519.2	405.76	449.78	510.5	510.92	492.38	506.26	465.38	449.16	445.6	411.85999999999996	431.0	465.03999999999996	449.09000000000003	443.28	385.9	516.71	482.76	444.82	496.63	460.36	430.23	509.6	540.19	423.49	480.5399999999999
151	11774.0	22401.0	362.91999999999996	355.14000000000004	293.18	333.19	283.6	377.18	377.03999999999996	236.62000000000003	495.12000000000006	420.76	391.3299999999999	346.20000000000005	354.03000000000003	300.31	344.20000000000005	431.5	442.86	259.4	366.14	346.34000000000003	263.95	394.92	437.2099999999999	278.48	542.1	528.0	449.7
152	8769.0	3714.0	445.89	448.48	469.03999999999996	441.97	393.38	444.89	448.52	423.73	454.34	422.72	440.6	388.88	481.49	478.86	468.48	402.72	416.58000000000004	433.53000000000003	572.96	397.28	359.46	427.37	481.58	470.98	437.48	495.52	529.8
153	22484.0	16498.0	370.46999999999997	302.68	383.08000000000004	406.16	385.72	371.48	383.64	386.0	412.34000000000003	326.5	403.34000000000003	369.42	344.44	359.03	413.34000000000003	356.38	356.26	414.56	391.26	398.98	380.87	367.68	399.91	392.87	363.36	402.58000000000004	388.1
154	2836.0	7139.0	416.92	421.43	378.95000000000005	390.66	431.78	426.7	421.71	393.03	401.52000000000004	391.4	322.07	350.1	382.98	368.03999999999996	414.68	395.58	401.84000000000003	346.95000000000005	336.84	433.9	426.72	379.94	418.05	425.97	371.53999999999996	397.68	427.04
155	18154.0	12964.0	372.44	460.27	300.94000000000005	427.96000000000004	400.13	460.24	415.66999999999996	395.90000000000003	448.51000000000005	381.52	425.72	425.75	454.7	396.4	492.01	413.64	472.61	545.8399999999999	501.90999999999997	428.12	324.46000000000004	389.73	428.0	410.6	379.9	411.64000000000004	346.38
156	20855.0	9045.0	444.46999999999997	538.73	469.68	516.29	651.03	525.44	397.2	518.77	468.02	450.89	446.58000000000004	439.33	548.48	500.06	444.77	559.14	515.2	502.51	309.18	410.41999999999996	558.24	397.19000000000005	462.02	449.92	415.78000000000003	506.28000000000003	516.37
157	21454.0	9082.0	601.26	656.6800000000001	598.1	518.97	673.29	607.4000000000001	573.3399999999999	563.4300000000001	606.1800000000001	527.94	629.56	461.66	583.4300000000001	609.32	545.1800000000001	605.3299999999999	568.7	624.94	567.86	601.9200000000001	432.16	531.28	591.6	579.9200000000001	625.46	605.8599999999999	574.29
158	8175.0	8217.0	280.96000000000004	271.43	273.03	262.44	268.1	265.4	263.48	274.79	265.68	263.04	266.1	272.96000000000004	277.25	271.09000000000003	271.28	268.0	265.95	268.38	398.68	271.84000000000003	277.59000000000003	257.98	267.69	280.44000000000005	257.83000000000004	276.55	265.68
159	2015.0	6683.0	350.0	411.87	396.49	413.95000000000005	389.17999999999995	391.99	372.6	345.28	366.02	385.16	352.94	314.68	328.23	359.93	388.68	411.54	404.14	385.84000000000003	384.1	460.96000000000004	378.45000000000005	386.84000000000003	420.98	404.87	380.58000000000004	356.54999999999995	395.36
160	2702.0	9527.0	360.46000000000004	405.8	478.88	423.01	382.66999999999996	382.08000000000004	453.53999999999996	448.06	416.96000000000004	440.65	444.38	470.14000000000004	436.76	405.29999999999995	388.04	434.98	476.63	424.33000000000004	411.0	456.65000000000003	448.8	396.25	470.94	451.65000000000003	404.6	404.35999999999996	410.81
161	7215.0	1926.0	391.4	503.14	358.21	496.08	524.58	425.84000000000003	371.14	446.28	486.63	450.38	423.24	439.5	412.15000000000003	474.20000000000005	497.5	469.56000000000006	429.38	439.52	424.05	470.6	452.08000000000004	448.2	382.06000000000006	472.48	432.15999999999997	438.7	461.39
162	5452.0	10559.0	416.33000000000004	321.68	339.40000000000003	273.86	338.05999999999995	341.78	358.44	351.16	356.1	433.72	368.70000000000005	272.6	281.3	450.28	344.45000000000005	347.48	357.81	326.08000000000004	388.96000000000004	341.08	342.75	379.20000000000005	317.88	341.52	267.26	350.52000000000004	341.36
163	9795.0	17614.0	438.78000000000003	397.26	400.23	298.06000000000006	482.50000000000006	407.78	390.68	452.24	479.02	398.45000000000005	453.34	432.74	438.05	497.27000000000004	408.97999999999996	414.8	428.67999999999995	369.78	394.56000000000006	529.3599999999999	460.7	363.18	468.44	462.34000000000003	418.18	457.26	506.78000000000003
164	6730.0	2318.0	374.28	520.02	462.36	482.14	539.86	560.94	567.7	373.91999999999996	551.5	451.79999999999995	491.57	476.98	506.9	476.68	351.21	441.27	620.35	480.9	514.74	536.76	523.6	554.5799999999999	472.52	461.46000000000004	343.58000000000004	421.94	510.96000000000004
165	2404.0	2573.0	322.03999999999996	328.16	304.08000000000004	298.23	328.89	329.3	320.9	290.98	267.48	324.38	333.16	255.60000000000002	376.03000000000003	371.9	328.55	300.16	208.8	293.57000000000005	281.24	292.76	291.20000000000005	313.84000000000003	295.11	297.05	341.64	308.28	296.98
166	9181.0	1606.0	611.53	628.1700000000001	554.46	635.47	454.3	542.24	727.26	599.0	568.78	665.6200000000001	520.64	583.54	559.17	619.28	499.88	604.52	513.86	597.33	559.06	580.8399999999999	611.6600000000001	593.6099999999999	697.46	514.6	467.3	630.38	479.64
167	1267.0	15141.0	387.68	445.86	430.17999999999995	397.21000000000004	453.94	415.19000000000005	494.88	465.90999999999997	418.40999999999997	444.48	489.68	428.98	488.63	450.84000000000003	421.82000000000005	476.98	455.12	440.66999999999996	513.86	462.68	455.98	465.34000000000003	394.54999999999995	455.91999999999996	457.29	498.56000000000006	432.32
168	1018.0	14160.0	452.98	445.35	508.9	434.41999999999996	412.03	438.96000000000004	449.15	439.82000000000005	476.45	399.72	454.96000000000004	416.98	437.54	396.66	454.14	471.24	439.66	433.48	486.20000000000005	443.88	453.21000000000004	452.42	482.8	467.68	424.28	494.65000000000003	477.86
169	3655.0	1298.0	552.88	499.70000000000005	351.46000000000004	423.49	562.3	536.74	387.56000000000006	343.5	686.48	330.62	512.56	486.32000000000005	513.97	434.85	466.15999999999997	333.14	323.72	317.06	323.6	542.54	441.57	463.08000000000004	507.40000000000003	531.3	358.18	333.44	275.08000000000004
170	6217.0	18458.0	292.94	605.17	578.26	543.3	578.4000000000001	505.58	559.7800000000001	509.7	530.3	466.78	515.73	516.38	456.24	530.73	541.04	502.82	570.4000000000001	562.1500000000001	523.46	508.3	531.24	503.9	477.94	509.4599999999999	492.1	498.88	527.56
171	20660.0	12326.0	370.58000000000004	425.91999999999996	391.23	454.04	431.31999999999994	369.41999999999996	433.9	409.89	431.61	484.78999999999996	427.4	490.72	487.11	454.52	393.86	426.99	492.65000000000003	517.94	377.3	464.72	329.20000000000005	428.40999999999997	414.68	468.08000000000004	428.38	513.44	449.21000000000004
172	10154.0	10751.0	533.78	467.01	472.70000000000005	531.0	551.54	506.58000000000004	491.36	465.98	502.28	523.61	509.11	465.33	575.6	514.38	464.18	517.28	448.87	484.0	429.52	504.71	529.21	573.8199999999999	475.34000000000003	501.28	486.12	502.35	491.94
173	2760.0	8959.0	553.3800000000001	441.02	402.70000000000005	451.23	379.4	426.94	443.02	492.40999999999997	419.9	458.94	457.08000000000004	506.78	480.56000000000006	430.20000000000005	413.44	450.45000000000005	405.68	460.26	423.15999999999997	461.52000000000004	423.4	437.82	485.56000000000006	411.08000000000004	426.82000000000005	464.16	409.88
174	799.0	20213.0	445.39	503.12	452.03999999999996	439.82	356.6	252.16	481.01	394.31	384.69	392.44	437.74	480.76	440.18	405.18	431.0	466.38	435.3	375.93	464.98	445.59	406.99	473.88	416.4	444.54	472.40999999999997	440.29	426.38
175	13647.0	17449.0	548.3299999999999	547.86	401.58000000000004	475.20000000000005	415.20000000000005	461.78000000000003	485.81	441.81	406.02	459.85	469.20000000000005	450.75	519.1400000000001	458.36	486.12	452.51	399.98	502.77	417.19	402.4	475.5	421.14	402.57	530.37	478.1	457.42	476.86
176	7328.0	14107.0	283.28999999999996	263.65	291.48	292.48	386.24	320.5	322.07	349.88	319.54999999999995	315.5	330.70000000000005	338.70000000000005	287.9	356.09	312.14	296.9	328.72	328.95000000000005	260.24	260.68	308.48	347.49	374.28000000000003	341.17999999999995	381.78	323.54999999999995	365.48
177	8095.0	3998.0	308.68	464.56000000000006	374.08000000000004	484.20000000000005	413.73	496.85	457.84000000000003	456.62	463.56000000000006	428.84000000000003	454.96	480.88	502.03999999999996	441.0	482.84000000000003	369.0	444.28	474.78000000000003	411.6	453.9	560.58	507.62	525.94	407.08000000000004	293.56	463.12	485.5
178	5501.0	14804.0	416.97	501.18	429.66	460.85	474.28000000000003	456.78000000000003	475.55	467.64	533.71	452.66999999999996	505.88	511.36	444.58	571.1700000000001	433.46999999999997	451.99	508.38	415.08000000000004	485.34000000000003	542.28	468.12	468.68	461.35	457.54999999999995	486.25	511.14000000000004	429.20000000000005
179	1191.0	10667.0	412.14	480.37	425.41	410.64	435.16	392.82	446.12	393.64	485.32	421.57	439.04	652.26	415.67	542.35	506.65	568.38	420.04999999999995	525.56	429.52000000000004	417.66	438.78	442.42	431.57000000000005	421.56	417.56000000000006	385.28000000000003	415.58000000000004
180	11651.0	11265.0	351.58000000000004	378.15	457.08	391.09000000000003	344.98	419.1	360.36	402.3	319.28	373.48	361.68	397.9	459.41	422.43	428.24	388.5	391.63	386.12	412.5	381.99	406.96000000000004	392.54	400.22	368.48	407.20000000000005	405.05	393.9
181	6323.0	7142.0	524.94	406.94000000000005	484.88	544.26	457.96	398.36	479.34000000000003	495.12	506.25999999999993	537.79	473.36	491.68	409.04	495.8	444.68	470.96000000000004	451.08000000000004	577.19	494.84000000000003	479.94	510.86	477.86	453.16	457.20000000000005	469.67999999999995	500.18	408.26
182	6738.0	1736.0	650.8399999999999	484.74	547.0799999999999	563.98	524.96	533.26	632.48	547.78	607.44	457.28	528.23	516.6	444.77	426.28	588.65	492.91999999999996	479.46000000000004	523.07	452.46000000000004	497.66999999999996	448.17999999999995	524.24	460.73	548.22	613.57	686.2	532.8399999999999
183	4459.0	8070.0	438.08	427.88	424.84	379.84000000000003	396.98	364.86	399.3	415.61	373.25	412.4	391.11999999999995	354.5	446.06000000000006	365.96000000000004	399.88	425.65	369.46000000000004	400.63	368.28	407.28	383.9	485.12	359.05	361.45000000000005	456.09000000000003	424.98	388.26
184	6358.0	15856.0	381.38	499.86	574.61	477.36	497.12	473.04	417.83000000000004	389.35	586.1	542.96	554.0	570.73	417.56	494.3299999999999	478.88	499.19	513.6600000000001	526.1300000000001	564.0	605.19	461.40000000000003	425.4	546.64	514.16	588.01	449.72	556.5
185	7276.0	18325.0	445.64	546.1	469.58	558.49	542.23	543.1	515.08	552.76	419.1	490.52	579.69	493.08000000000004	332.54	493.43	521.4	535.88	488.70000000000005	441.34000000000003	321.44	591.0699999999999	481.22	421.06	466.58	584.7	426.38000000000005	588.98	513.11
186	2424.0	9299.0	419.76	401.82000000000005	405.03999999999996	395.6	398.97	408.51	439.83000000000004	408.9	410.5	446.34000000000003	393.34000000000003	447.35	498.06	377.39	403.58000000000004	381.41	404.08000000000004	429.88	357.68	454.6	398.9	468.0	353.36	406.72999999999996	417.95000000000005	395.1	384.35
187	2138.0	1099.0	503.81	464.81	436.97	416.45000000000005	484.82	426.28	364.68	528.2	493.44	602.52	377.03999999999996	401.51	401.74	442.0	491.88	403.78	454.78000000000003	458.5	520.56	570.3	444.86	516.14	481.42	426.24	376.4	434.67999999999995	456.21000000000004
188	6127.0	12408.0	386.1	333.48	336.34000000000003	313.59	254.46	307.9	347.02	271.53999999999996	306.20000000000005	349.03999999999996	288.53999999999996	290.96000000000004	307.58	271.9	328.78	279.82	303.36	272.54	318.95000000000005	287.18	313.69000000000005	286.58000000000004	296.06	265.0	330.62	284.58000000000004	251.3
189	4372.0	3617.0	301.76	311.72	309.20000000000005	398.99	296.1	447.08000000000004	314.52	399.64	281.35	434.44	317.63	270.3	320.98	368.88	453.17999999999995	515.28	410.89	310.3	353.62	337.03999999999996	257.58000000000004	283.38	363.28000000000003	431.22	389.56	395.47999999999996	345.52
190	7733.0	4368.0	450.11	506.0	497.02	472.14	521.3399999999999	478.4200000000001	501.11	466.70000000000005	549.48	470.91	529.03	497.34	376.76	517.4	500.94	482.14	498.98	490.94	404.0	493.58000000000004	498.90000000000003	488.98	531.09	494.35	372.68	486.22	479.17
191	11238.0	10957.0	496.08000000000004	424.23	513.9200000000001	427.84000000000003	508.5	499.85	472.4	518.5	440.37	443.98	460.58000000000004	559.4000000000001	656.02	553.8	582.27	495.92	567.38	492.76000000000005	578.04	538.08	510.78000000000003	450.22	451.76	448.67	503.01	499.13	491.49
192	10051.0	2026.0	513.05	505.54	455.74	420.08000000000004	487.26	476.46000000000004	545.75	455.52	556.46	452.63	390.08000000000004	434.6	509.27	439.3	447.20000000000005	444.69	468.40000000000003	498.58	454.94	440.91	418.9	460.33000000000004	530.76	421.0	506.12	504.08000000000004	466.23
193	14899.0	20000.0	437.08	697.63	462.17999999999995	382.9	476.06	480.18	372.76	550.3499999999999	486.88	519.64	435.78	424.66	405.02	465.78999999999996	486.34000000000003	386.62	516.62	458.38	455.24	537.74	461.03999999999996	510.86	484.74	406.44	533.5799999999999	497.70000000000005	466.58000000000004
194	4709.0	2177.0	397.40000000000003	400.6	386.57	441.44	369.81	375.05999999999995	352.04	334.28	356.64	440.54999999999995	415.64	328.86	378.51	442.7	404.82	359.87	332.36	436.31	418.84000000000003	387.79	397.12	389.83000000000004	387.40999999999997	393.96000000000004	311.27	480.54	336.52
195	2765.0	10683.0	468.3	441.28	361.6	459.18	316.34000000000003	477.5	399.22	443.47	378.83	413.14	376.46000000000004	423.77	410.9	418.36	409.42	408.24	457.86	405.8	449.57000000000005	437.53999999999996	423.86	413.82	457.36	355.87	420.71999999999997	444.65	336.88
196	22771.0	21157.0	361.70000000000005	429.53	401.08000000000004	277.3	447.75	370.20000000000005	405.06000000000006	450.03000000000003	476.27	308.3	396.74	419.12	296.70000000000005	453.98	311.48	270.76	417.18	679.96	356.94	451.3	371.41	328.24	403.51	832.0	517.94	400.9	493.85
197	9201.0	9760.0	339.88	359.07000000000005	405.75	399.19000000000005	402.48	457.4	453.12	479.41	459.19	431.13	448.88	433.99	377.84000000000003	356.09	409.38	434.53999999999996	477.09000000000003	430.56000000000006	457.46000000000004	416.19	414.88	449.08	371.08	422.03999999999996	424.82	354.52	405.66
198	4809.0	10009.0	348.08000000000004	421.68	362.21000000000004	470.65000000000003	363.98	354.03000000000003	413.84	384.4	366.53	418.36	339.28	351.39	435.13	312.45	372.98	397.4	403.63000000000005	409.42	410.70000000000005	362.26	389.0	393.6	403.03999999999996	326.0	366.70000000000005	322.13	327.14
199	8569.0	8275.0	543.24	619.28	544.54	576.08	519.56	584.19	578.1600000000001	544.3499999999999	511.28000000000003	559.48	616.08	628.27	578.3	537.98	569.73	550.4199999999998	528.22	456.88	526.54	612.47	529.25	534.1600000000001	517.4000000000001	543.46	600.76	477.04	612.2
200	1350.0	15010.0	336.55	448.42	454.15999999999997	454.24	386.97	455.48	444.56000000000006	383.7	431.16	437.1	446.68	346.78	427.78	466.18000000000006	410.20000000000005	432.26	413.6	378.43	404.26	477.68	423.0	342.8	432.58000000000004	449.03999999999996	478.7	446.64	412.92
201	1782.0	7117.0	419.5	529.78	524.1	414.86	525.6800000000001	453.86	451.82000000000005	470.12	428.78999999999996	558.59	491.02	433.21000000000004	440.28	365.70000000000005	550.94	512.2	555.13	455.24	432.93	544.76	501.57000000000005	413.24	451.1	618.48	476.5	509.78	541.1600000000001
202	9098.0	9311.0	275.76	408.65999999999997	665.72	922.1800000000001	519.4000000000001	573.49	491.09000000000003	447.65	585.63	594.0799999999999	523.1600000000001	549.6800000000001	554.78	490.23	529.7	481.78	481.48	603.49	308.28	690.2	542.04	680.24	641.1800000000001	520.88	803.66	579.36	522.9000000000001
203	7924.0	9089.0	271.6	352.1	306.6	347.68	300.74	317.59000000000003	323.36	315.48	315.58000000000004	342.68	279.36	278.8	292.38	319.03	329.88	299.98	328.59000000000003	305.55	314.32000000000005	280.82000000000005	329.98	308.88	291.18	319.48	355.06000000000006	318.62	309.26
204	1460.0	5128.0	446.86	447.34	447.61	353.08000000000004	438.6	421.24	475.48	439.0	409.03999999999996	391.52	459.66	456.85	444.29	421.26000000000005	416.42	432.79	526.36	417.94	351.49	481.68	387.76	370.6	484.75	426.03999999999996	456.46	414.16	422.6
205	4447.0	9828.0	405.63	385.18	416.38	399.28000000000003	395.86	419.38	363.71000000000004	401.46000000000004	421.91	407.3	399.48	380.92	446.0	428.38000000000005	405.38	430.46000000000004	397.64	444.86	427.18	404.61	400.84000000000003	472.84000000000003	379.96000000000004	370.78999999999996	382.68	344.96000000000004	353.16
206	22095.0	10882.0	433.6	532.02	482.98	480.65999999999997	412.39	454.68	440.83000000000004	487.78999999999996	439.86	485.46000000000004	439.45	382.58000000000004	400.6	416.49	509.96	450.5	532.74	367.02	444.09	512.4	400.78	390.32	387.78999999999996	403.58000000000004	457.97999999999996	500.63	464.29
207	10582.0	21764.0	372.18	421.76	409.98	268.62	385.1	346.3	303.08	354.08000000000004	322.4	346.82000000000005	398.9	355.28	377.27	401.46	344.96000000000004	421.6	408.88	348.40999999999997	344.48	369.24	319.42	296.38	335.08	349.28	201.24	384.02	401.36
208	5726.0	3843.0	399.53999999999996	328.18	342.72	461.1	415.28	368.34000000000003	369.20000000000005	365.3	364.88	364.04	379.4	338.70000000000005	358.14	307.26	496.18	286.9	407.48	356.74	313.98	395.44	381.65999999999997	355.58000000000004	465.88	390.32	306.06000000000006	406.19	313.48
209	9903.0	12179.0	485.12	499.56000000000006	464.36	467.16	434.48	460.74	455.43	510.75	445.16	491.46000000000004	506.53000000000003	462.25	469.34999999999997	501.51000000000005	406.16	483.36	425.98	532.96	435.34000000000003	449.38	420.04999999999995	514.48	438.9	405.2	463.18	432.20000000000005	413.72
210	7178.0	14166.0	290.08000000000004	275.72	304.5	314.22	326.28	371.28	343.74	300.70000000000005	262.53999999999996	289.53000000000003	367.84999999999997	326.97	362.68	321.23	292.8	302.32	324.61	259.58000000000004	320.97	327.76	372.67999999999995	346.79	257.87	342.91999999999996	379.0	287.21000000000004	341.07
211	21298.0	9003.0	572.26	483.06	484.39	518.6600000000001	469.03	529.8	680.9399999999999	503.97999999999996	669.44	684.87	484.94	544.7900000000001	558.73	534.8299999999999	652.26	505.82000000000005	464.42999999999995	602.6200000000001	545.27	668.5899999999999	586.54	671.78	669.51	610.86	576.95	497.01	540.21
212	4026.0	17345.0	542.94	542.56	557.28	693.78	532.5400000000001	677.31	665.62	597.0	745.06	567.9599999999999	463.48	582.42	735.26	543.96	638.92	669.6500000000001	523.71	639.92	835.2	428.69	531.6	470.5	502.65	701.74	619.8	675.1800000000001	614.32
213	4769.0	12469.0	289.28	416.49	393.59000000000003	388.81	413.67	402.88	396.64	414.53	417.38	386.86	446.85	416.53999999999996	416.72	410.38	399.96000000000004	418.89	409.66	374.16999999999996	291.15999999999997	388.96000000000004	438.0	472.84000000000003	373.39	422.4	387.26	428.74	455.38
214	7338.0	8425.0	355.59000000000003	358.98	331.1	354.1	368.68	302.3	321.0	346.9	324.1	359.5	313.48	286.78	442.38	346.98	385.5	354.78	332.56000000000006	346.52	370.18	322.12	285.9	368.52	302.53	341.09000000000003	365.23	364.46000000000004	357.0
215	8933.0	19523.0	547.48	521.84	553.39	477.49	575.25	520.49	587.12	550.38	505.56	554.7	595.82	552.54	537.72	565.66	442.9	398.53999999999996	608.76	573.94	579.6099999999999	351.86	506.0	641.22	460.99	524.8	352.01	511.5	534.3
216	20062.0	17796.0	442.18000000000006	450.69	338.98	402.6	392.46000000000004	336.88	411.72	412.3	404.18	428.72	456.95000000000005	439.20000000000005	384.20000000000005	406.5	415.78	326.4	422.82	438.98	403.26	341.86	465.72	422.48	463.56000000000006	344.28	355.93000000000006	377.18	425.04
217	12928.0	22688.0	257.8	438.98	417.95000000000005	332.02000000000004	418.46	391.53999999999996	463.4	425.4	477.82	367.70000000000005	424.48	393.17999999999995	442.90999999999997	418.88	382.59000000000003	443.16	410.5	446.46000000000004	453.58000000000004	304.28	346.22	390.18	427.65999999999997	392.48	510.42	408.53000000000003	366.52
218	8168.0	1457.0	338.8	363.34000000000003	367.03999999999996	360.98	397.94	355.59000000000003	372.88	348.24	391.24	373.52	361.41	359.78000000000003	392.59	378.34000000000003	354.4	350.94	358.3	349.14	408.48	432.1	383.41999999999996	341.55	347.93	393.48	315.72	316.4	361.78
219	5826.0	10062.0	382.78000000000003	397.76000000000005	361.53999999999996	381.28000000000003	348.24	501.68	413.98	371.69000000000005	372.84000000000003	449.58	409.38	378.4	325.2	391.64	331.0	330.26	334.82	360.15999999999997	385.92	439.41999999999996	497.61999999999995	408.96000000000004	349.43	410.22	337.86	377.78	392.86
220	15457.0	19192.0	326.5	306.33	375.38	386.6	395.14	304.03999999999996	391.18	384.59000000000003	377.84000000000003	459.40000000000003	389.0	354.53000000000003	419.5	370.33000000000004	322.68	382.44000000000005	405.64	385.83	365.21000000000004	460.6	415.55999999999995	445.92	336.78	399.68	403.04999999999995	383.58	417.74
221	1093.0	1594.0	394.20000000000005	353.29	317.31	361.52	337.02000000000004	288.69	348.74	359.46000000000004	328.68	395.89	336.14	271.68	364.54999999999995	331.6	391.6	374.57000000000005	427.20000000000005	354.18	329.13000000000005	384.33000000000004	289.35	459.73	357.28	346.08000000000004	318.42	459.38	376.32
222	10286.0	16521.0	403.76	413.08000000000004	384.76	450.6	399.08	447.95	339.90000000000003	420.82	375.68	427.58000000000004	414.78999999999996	442.54	319.68	444.78000000000003	437.14	375.56000000000006	369.3	388.68	361.79	414.94000000000005	425.62	443.8	387.58	369.6	369.76	369.58000000000004	376.22
223	1764.0	3058.0	414.34000000000003	474.09	411.48	460.76	496.47999999999996	442.1	433.29	473.6	401.28	487.8	556.39	452.83	420.8	419.26	491.35	407.90999999999997	494.07000000000005	458.96000000000004	344.96000000000004	390.08000000000004	402.83	297.41999999999996	346.78	345.84000000000003	476.34000000000003	276.38	475.33000000000004
224	2761.0	7543.0	354.38	385.1	350.18	392.88	344.14	353.38	372.86	409.06000000000006	377.84000000000003	383.26	315.5	428.06000000000006	379.65	418.78999999999996	365.5	369.46000000000004	381.43	348.98	317.18	354.71	330.14	365.3	394.20000000000005	363.79	341.31	412.58000000000004	398.44
225	4826.0	2311.0	554.26	586.15	580.6800000000001	582.29	517.11	615.1	607.5799999999999	574.28	627.5899999999999	584.86	539.04	604.08	584.5699999999999	575.03	555.24	479.75	617.38	521.81	553.76	619.84	601.72	518.56	539.0799999999999	542.91	334.98	540.1899999999999	583.03
226	6861.0	15441.0	341.0	423.6	438.99	378.5	419.14	389.14	417.32	368.30999999999995	393.36	313.94	407.68	309.17999999999995	384.12	405.45000000000005	391.93000000000006	349.28	359.09	476.9	300.78	343.58000000000004	392.48	427.3	411.68	318.28999999999996	357.16	431.78	366.66
227	19003.0	10098.0	525.36	417.46000000000004	447.52	481.62	478.90000000000003	459.36	413.73	456.93	555.0799999999999	543.48	406.20000000000005	469.55999999999995	566.78	392.02	549.94	398.08000000000004	384.20000000000005	495.88	571.3199999999999	499.24	502.17999999999995	502.48	478.74	469.71	539.77	399.38	396.94
228	10035.0	16601.0	405.22	470.39	424.72	473.44	463.24	373.73	438.38	432.4	451.5	461.86	441.02	401.44	447.53999999999996	395.03000000000003	422.86	400.49	434.17	432.86	424.13000000000005	396.39	465.20000000000005	436.99	411.16	413.12	427.12	417.65000000000003	426.3
229	4477.0	22209.0	423.84000000000003	337.6	296.06	285.36	427.14	458.62	426.53000000000003	336.08	396.64	393.79	383.20000000000005	380.28	308.94	362.95	342.98	344.64	365.78	397.27000000000004	464.32	344.73	435.13000000000005	322.33000000000004	350.0	532.76	468.56	474.86	419.65
230	12247.0	20662.0	543.1	574.0	405.34	370.12000000000006	537.52	455.49	536.3199999999999	421.38	470.84000000000003	494.89	391.90000000000003	524.74	302.70000000000005	523.6800000000001	417.58	432.12	502.12	307.4	467.78	284.8	410.52	293.98	319.24	411.5	370.73	400.36	505.83000000000004
231	6454.0	13173.0	362.46000000000004	497.06000000000006	481.38	489.9	409.77	456.92999999999995	463.88	457.20000000000005	499.88	394.78	491.16	499.56	397.51	443.98	462.48	485.38	412.92	340.96000000000004	485.28000000000003	435.05999999999995	501.61	416.46	485.02	491.11	485.81999999999994	493.52	426.19
232	22499.0	4989.0	555.5	526.42	544.38	515.86	565.64	511.74	525.54	525.28	466.68	536.6600000000001	514.78	486.70000000000005	494.74	515.08	457.09000000000003	537.0	478.18	492.9	478.11	491.14	522.1400000000001	522.84	507.58	466.82	475.90999999999997	474.3	497.28000000000003
233	2487.0	21205.0	381.5	380.84000000000003	448.5	302.14	354.56	394.94	346.68	395.12	344.58000000000004	398.64	318.16	435.48	293.49	308.5	307.14	350.16	323.5	325.76	460.47	307.1	448.22	378.48	341.76	400.14	309.88	296.06	334.82
234	7118.0	18496.0	450.12	529.9599999999999	452.62	486.19999999999993	541.28	451.28	455.98	516.48	389.59000000000003	443.06000000000006	489.74	391.34000000000003	416.8	444.03	353.18	454.1	493.59000000000003	372.69	515.62	514.97	470.1	492.74	437.16999999999996	448.5	446.73	499.06000000000006	454.16
235	18285.0	20560.0	487.70000000000005	378.0	405.28	415.42	459.85999999999996	549.26	369.46000000000004	410.58000000000004	388.37	395.74	389.55	417.83000000000004	465.8	557.1600000000001	496.1	439.17	381.36	551.91	457.8	417.31	361.56000000000006	500.78000000000003	408.54	465.56	451.07000000000005	422.39	485.3
236	946.0	9833.0	402.92	439.0	407.24	390.78	365.52	420.24	395.85999999999996	418.19999999999993	386.75	443.83	395.9	438.46000000000004	451.44000000000005	419.08000000000004	400.6	406.17	436.53	451.36	369.32	381.42	451.75	423.98	416.97999999999996	404.28	404.10999999999996	436.93	438.95000000000005
237	22413.0	15294.0	467.08000000000004	527.79	417.1	402.72	426.95000000000005	381.91999999999996	458.0	422.06	426.24	364.03	323.38	366.81	349.98	476.15999999999997	501.56	398.58000000000004	356.98	429.34000000000003	356.9	394.62	471.18	460.6	410.08000000000004	490.78000000000003	388.48	449.57000000000005	411.66
238	1603.0	4205.0	327.86	329.20000000000005	376.32	346.92999999999995	351.0	332.58000000000004	329.84000000000003	355.37	373.0	343.98	355.3	370.42	346.08000000000004	405.98	382.49	428.38	396.20000000000005	410.8	362.3	388.89	360.78	316.20000000000005	334.14	373.82	361.38	342.78	354.85
239	7727.0	5685.0	388.76	491.65000000000003	461.36	459.8	277.20000000000005	472.28	394.28999999999996	407.02000000000004	354.8	381.86	448.58	277.38	380.88	383.27	472.1	305.15999999999997	457.64	451.26000000000005	423.02	424.93999999999994	469.0	370.77	424.66999999999996	403.43999999999994	497.7	382.68	426.29
240	11908.0	17662.0	472.9	427.34000000000003	487.98	586.1600000000001	473.79	497.78000000000003	471.94	450.70000000000005	514.0699999999999	465.98	472.19	435.9	465.41999999999996	456.49	480.46000000000004	460.43	497.8	408.20000000000005	474.66	536.38	501.26000000000005	497.42	516.19	507.44	513.35	343.86	534.7
241	3179.0	7418.0	307.84000000000003	309.88	304.36	303.68	300.70000000000005	301.98	302.88	306.53999999999996	306.26	301.4	313.07000000000005	305.99	310.19	304.24	311.86	298.58000000000004	305.64	303.58000000000004	318.58000000000004	306.20000000000005	318.19	307.8	300.56	302.3	301.58000000000004	300.51	304.94
242	10491.0	11081.0	330.67	366.58000000000004	423.26	363.1	390.53999999999996	378.68	391.23	376.11999999999995	379.59999999999997	389.07000000000005	385.03999999999996	400.41	386.78	368.44	381.69	387.11	360.9	436.33000000000004	393.68	410.64	375.18	404.65	374.11	376.88	405.1	367.36	387.13
243	6630.0	8030.0	285.55999999999995	403.34000000000003	308.66	300.38	301.11	281.18	277.08000000000004	293.47	274.9	278.64	294.43	256.32	285.78	304.3	269.88	304.1	320.36	312.23	329.97	332.0	271.15999999999997	327.0	309.26	284.98	291.53999999999996	284.08000000000004	263.04999999999995
244	6656.0	10621.0	323.3	419.7	382.88	442.84000000000003	375.17	409.47999999999996	400.78	410.86	495.39	366.28	413.68	270.88	508.18	473.44	418.46	468.62	412.69000000000005	393.72	398.4	477.33000000000004	377.59	375.52000000000004	350.14	418.46000000000004	364.29999999999995	516.86	454.56000000000006
245	18481.0	9725.0	532.57	417.70000000000005	479.88	429.57	500.48	496.4	515.7	464.64	462.44	495.67	434.72	492.42	473.32000000000005	501.76	519.77	594.2	527.79	496.78000000000003	493.6	471.9	503.68	493.83	473.64	484.34000000000003	442.28	397.5	469.38
246	4994.0	5973.0	675.5	621.3199999999999	464.42	531.6700000000001	530.11	619.74	464.67	464.08000000000004	429.5	463.3	503.62	448.91	627.39	642.1200000000001	526.8100000000001	457.47999999999996	565.0799999999999	568.36	564.0	556.31	553.51	574.46	537.5799999999999	450.88	446.28000000000003	525.8	523.1800000000001
247	7161.0	6851.0	401.93	483.68	423.53	469.6	307.84000000000003	377.79999999999995	482.63	423.93	448.15	424.28000000000003	466.74	493.14	360.08000000000004	416.9	469.58000000000004	481.27	375.88	518.08	306.1	293.78	417.86	413.5	393.47	472.48	516.5	536.56	415.96999999999997
248	4854.0	10881.0	451.9	409.70000000000005	373.06	333.38	467.72	403.92	425.38	406.38	435.83000000000004	438.51	421.19	431.34000000000003	480.74	389.21999999999997	358.44000000000005	412.48	371.48	416.20000000000005	374.38	453.53999999999996	392.08000000000004	451.96	448.75	396.0	433.8	427.42	405.96000000000004
249	4844.0	16054.0	361.28	528.3	458.98	334.0	303.08000000000004	368.36	375.5	413.12	453.20000000000005	418.36	399.18	335.91999999999996	347.67	343.28000000000003	415.53000000000003	298.84000000000003	442.25	298.88	340.64000000000004	331.87	285.89	370.72	471.21000000000004	410.49	408.74	453.89	480.54
250	5810.0	6224.0	524.19	526.4300000000001	523.54	425.63	472.6	488.38	503.8	505.14	472.48	459.08000000000004	453.83000000000004	255.96	528.83	542.5600000000001	519.04	384.52	450.20000000000005	452.23	509.2	444.13	515.9000000000001	543.86	478.52	408.63	377.36	500.18	457.74
251	5778.0	19953.0	517.8199999999999	493.30000000000007	448.34000000000003	446.56	466.44	500.31	452.78000000000003	472.06000000000006	374.67	453.54999999999995	454.01	454.9	444.18000000000006	468.88	473.59000000000003	516.64	432.08000000000004	471.12	511.57000000000005	501.53999999999996	447.52	489.88	563.1800000000001	515.24	543.14	544.34	528.0
252	905.0	7919.0	350.6	347.78	361.33000000000004	351.08000000000004	317.73	361.51	339.57000000000005	336.72	326.65999999999997	365.68	348.0	360.01	317.25	319.18000000000006	340.27	343.26	361.86	378.33	350.04	375.74	334.94	325.01	337.18	360.36	325.05999999999995	371.3	300.82
253	16541.0	19335.0	429.81	403.48	415.88	411.09000000000003	405.64	408.35	407.83000000000004	452.28000000000003	392.26	401.76	385.05	414.40999999999997	399.58000000000004	398.4	410.74	408.28	404.4	414.52000000000004	462.1	430.98	402.66	430.36	369.96000000000004	454.70000000000005	393.66	384.26	413.92
254	7170.0	5450.0	433.38	461.3	449.14	433.03999999999996	423.9	447.82	433.47999999999996	438.57	407.96000000000004	460.48	416.25	358.1	419.98	398.18	435.03999999999996	433.0	440.63	470.08000000000004	428.46	443.58000000000004	418.28	422.12	388.51	431.68000000000006	388.6	411.21000000000004	406.3
255	6496.0	8644.0	406.05	310.48	376.28	355.49	373.5	332.40000000000003	333.48	384.71999999999997	332.63	348.71000000000004	387.18	414.0	368.97	375.62	344.93	308.14	294.88	363.65999999999997	366.76	406.5	350.99	426.24	325.33	351.4	345.4	368.64	387.18
256	1767.0	9456.0	392.61	361.36	412.62	403.46000000000004	407.72	408.4	435.6	395.67999999999995	455.74	382.07000000000005	388.78999999999996	359.2	354.72	448.61	400.84000000000003	373.37	389.84	375.26	393.14	387.4	367.1	393.01	486.28000000000003	413.15999999999997	459.18	406.09000000000003	411.70000000000005
257	9746.0	12218.0	515.74	510.58000000000004	513.3000000000001	518.72	563.24	530.83	542.64	551.01	524.8	545.01	506.62	511.25	524.3800000000001	539.29	527.29	581.54	564.84	573.18	558.02	549.6800000000001	520.7	520.1	520.09	567.5	515.56	509.07	558.3199999999999
258	1078.0	3051.0	349.18	365.1	347.88	503.78	464.8	477.26	409.2	391.88	458.98	366.47	451.4	350.48	425.06	410.3	511.66	437.97	389.11	340.78	382.0	380.53999999999996	346.88	456.76000000000005	479.7	402.15	402.88	548.3	458.36
259	19650.0	1645.0	468.8	471.86	412.41999999999996	389.74	389.77000000000004	453.93	409.56	415.15999999999997	480.1	439.29	483.27	456.13000000000005	363.58000000000004	428.98	360.66	363.86	432.77	482.44000000000005	482.40000000000003	367.94	417.21000000000004	407.72	326.28	442.32	411.46	410.80000000000007	469.15999999999997
260	4404.0	11290.0	371.3	378.37	366.95	330.26	430.08000000000004	354.5	342.54	361.06	357.63	353.61	342.94	388.8	339.37	359.84000000000003	346.18	379.24	339.34000000000003	371.21999999999997	370.78	365.38	328.45	320.86	355.2	335.66999999999996	412.1	340.28	310.82
261	597.0	2504.0	325.5	329.36	394.88	459.4	428.69	489.1	377.18	422.08	492.08000000000004	443.1	621.26	370.59000000000003	494.67	511.26	466.26	394.17	293.28	542.76	305.18	442.25	350.28	370.58000000000004	468.24	442.99	399.70000000000005	474.9200000000001	508.63000000000005
262	12558.0	11755.0	666.35	541.22	511.03999999999996	437.28	533.0699999999999	468.02	487.2	538.38	665.8	493.99	501.68	646.7	475.68	556.16	536.93	492.8	616.62	522.8	510.78000000000003	492.78	402.26	602.01	499.98	426.52000000000004	651.76	556.3399999999999	517.65
263	9835.0	10243.0	371.1	397.77	408.06000000000006	415.70000000000005	344.15000000000003	411.87	409.6	423.41999999999996	455.74	392.64	419.17999999999995	357.79	417.31	425.94999999999993	428.76	424.3	399.06	399.58000000000004	353.44	406.09000000000003	394.70000000000005	265.28	401.17	407.21000000000004	405.88	406.65	346.88
264	3588.0	14234.0	343.86	443.94	415.3	375.84	341.66999999999996	432.84000000000003	432.70000000000005	364.28000000000003	372.99	431.64	409.7	374.98	402.37	394.24	424.28000000000003	426.58000000000004	340.26	412.28	314.68	446.76	431.8	313.11	432.12	476.19000000000005	394.53000000000003	404.7	395.18
265	2714.0	7283.0	417.36	402.1	358.65999999999997	413.32	387.9	385.18	404.1	388.93000000000006	371.94	369.86	345.38	370.77	369.86	351.39	385.96000000000004	397.05	377.28	356.46000000000004	364.15000000000003	406.12	363.03999999999996	371.22	333.98	352.78000000000003	304.70000000000005	366.08000000000004	426.46000000000004
266	7509.0	728.0	406.52	443.16	436.71999999999997	390.3	555.9000000000001	452.46000000000004	400.67	485.97999999999996	459.84000000000003	503.86	519.51	507.69	500.96	509.79	529.84	478.03999999999996	495.62	547.9	639.48	502.08000000000004	484.94	500.63	436.68	507.54999999999995	487.99	564.08	477.90000000000003
267	1444.0	2805.0	288.51	305.59	348.96000000000004	307.18	285.64	306.86	338.33000000000004	316.4	352.24	265.5	287.98	319.44	344.24	330.48	340.20000000000005	294.62	309.65999999999997	359.08	308.96000000000004	307.58000000000004	315.68	298.94	354.48	303.78	395.86	354.56000000000006	332.93
268	20418.0	9898.0	498.48	462.94	468.84	448.84	442.38	368.35	424.52	383.48	406.59	454.0	444.32	607.76	429.22	391.38	372.32000000000005	372.68	432.35	416.96	464.48	412.90999999999997	450.0	545.3399999999999	434.44000000000005	468.28000000000003	411.69	455.66	446.84000000000003
269	5780.0	10261.0	395.44	451.58000000000004	482.52	497.03999999999996	325.98	376.1	411.46000000000004	360.53000000000003	329.17	402.58	400.52	373.1	316.15999999999997	517.26	372.6	436.20000000000005	330.48	404.34999999999997	414.86	418.0	300.0	399.36	410.6	353.53999999999996	366.12	351.6	365.9
270	5023.0	3254.0	469.88	444.94	508.21000000000004	463.89	373.64	408.05	413.68	456.59000000000003	446.05	449.75	465.76	393.49	454.74	380.02	434.14	460.66	392.52	396.29999999999995	493.40999999999997	400.96000000000004	450.08	356.48	373.84000000000003	434.03000000000003	426.05999999999995	358.20000000000005	425.15999999999997
271	8432.0	10816.0	495.78000000000003	462.88	464.52	471.96000000000004	528.1	449.47	460.48	466.4	464.66	497.5	454.5	503.94	439.58000000000004	458.84000000000003	444.55999999999995	445.97	469.14	456.8	434.09000000000003	469.9	449.45	477.74	506.87	451.1	392.8	443.3	461.56
272	322.0	5993.0	432.16	454.08000000000004	457.38	507.82	400.09999999999997	411.87	455.25	411.26	414.72	441.86	466.36	429.44	567.98	406.70000000000005	445.16	416.18	430.83	420.23	470.72	484.25	460.50000000000006	418.57000000000005	402.9	408.9	484.53000000000003	450.22	482.43
273	2771.0	17250.0	481.66999999999996	551.5799999999999	570.1	506.68999999999994	604.5699999999999	570.3299999999999	498.0	515.5	782.7	582.76	642.23	573.03	629.03	609.94	545.54	456.38	503.1600000000001	484.07	460.48	573.56	655.51	439.49	692.14	739.6300000000001	356.5	517.14	624.44
274	18409.0	21745.0	408.57	375.85	391.97	410.10999999999996	361.67999999999995	375.03999999999996	362.70000000000005	364.51	353.13	366.81000000000006	403.46000000000004	379.58000000000004	374.27	367.13000000000005	362.97	364.28	373.48	369.86	362.03000000000003	396.6	355.86	361.68	382.55	375.08000000000004	327.62	367.08000000000004	348.77
275	6452.0	21154.0	486.52	447.34000000000003	477.15999999999997	510.72	539.28	491.15999999999997	455.86	478.98	494.53999999999996	452.53999999999996	458.68	448.41	429.48	445.43	483.06	510.86	464.38	444.51	353.41999999999996	462.77000000000004	460.66999999999996	478.66	485.08000000000004	522.62	409.36	464.9	456.46
276	22721.0	21825.0	205.4	207.2	209.28000000000003	211.78000000000003	210.44	207.98000000000002	204.05	210.58	213.57	206.49	211.60000000000002	208.51999999999998	203.39	211.9	208.67000000000002	202.08	208.7	211.18	214.26999999999998	213.76	205.35000000000002	209.45000000000002	211.18	212.3	211.36	214.55	213.08
277	21228.0	8648.0	314.89000000000004	319.20000000000005	306.75	307.34000000000003	313.20000000000005	310.98	311.86	312.12	311.98	310.9	313.99	311.1	315.76	310.88	317.83000000000004	309.88	315.38	318.20000000000005	317.28	323.39	311.28999999999996	311.65	317.6	313.99	318.48	310.58000000000004	315.9
278	8481.0	11183.0	370.28000000000003	350.0	354.76	399.70000000000005	330.25	361.18	380.76	375.49	303.4	366.15	388.3	375.69	379.18	349.89	341.9	358.83000000000004	364.89	394.12	373.38	354.36	380.40999999999997	354.95000000000005	305.15	398.13000000000005	382.9	387.97	366.68
279	3375.0	16907.0	355.68	355.94	372.46000000000004	399.84000000000003	335.74	361.0	363.19000000000005	385.03999999999996	356.88	372.03	432.6	322.48	337.63	418.83	389.21000000000004	368.28000000000003	411.72	416.65	436.85	335.99	438.09000000000003	374.15999999999997	403.84000000000003	357.42	428.6	430.09000000000003	378.49
280	3018.0	8321.0	367.65	340.8	345.12	350.82000000000005	323.1	352.56000000000006	338.41999999999996	362.67999999999995	347.83000000000004	355.9	361.19000000000005	342.88	290.28	384.18	322.6	343.15	344.23999999999995	337.34000000000003	328.48	353.6	330.46	375.27	312.13	350.5	308.14	344.95	363.81000000000006
281	12427.0	20940.0	191.78000000000003	446.47999999999996	489.04	281.5	307.16	345.69	368.41999999999996	410.38	269.98	494.58000000000004	500.48	511.40999999999997	341.26	372.25	402.04	294.70000000000005	451.0	437.22	385.11	490.35	507.58000000000004	357.62	476.65000000000003	475.06000000000006	487.1	386.68	435.61
282	7993.0	7932.0	312.26	315.53999999999996	316.24	312.4	360.18	326.95000000000005	331.97	331.86	301.15999999999997	359.69	336.66999999999996	350.96	338.1	359.8	307.89000000000004	328.55	351.42	338.62	316.48	309.63	337.62	306.02	317.78	308.36	319.08	289.5	348.68
283	4455.0	8781.0	288.06	350.68	394.15	391.76	365.16	331.55	360.0	361.8	364.12	349.34000000000003	373.04	380.34000000000003	318.0	343.5	349.78	378.20000000000005	349.9	338.94	360.76	368.08000000000004	371.4	324.08	358.5	363.59	365.28999999999996	379.53	374.71000000000004
284	1334.0	16114.0	329.06	362.15	273.1	277.38	323.0	348.72	281.6	292.20000000000005	304.55	253.58	333.96	281.87	408.84	343.08000000000004	311.27	280.59000000000003	317.28	279.26	388.97	328.9	307.87	318.44	300.35	330.56000000000006	293.93	301.28	280.94
285	3135.0	8843.0	380.53999999999996	360.23	384.98	397.75	385.43	352.83000000000004	380.42	378.14	336.56	397.94	395.16	412.98	381.78	374.38	378.06000000000006	416.14	355.98	387.03999999999996	370.66	382.21	398.28	367.4	400.58	382.5	298.38	392.66	382.5
286	2679.0	11045.0	521.1800000000001	535.36	514.3	543.44	500.46000000000004	530.4300000000001	528.1	500.04	547.0600000000001	529.1600000000001	492.8	493.03	608.62	544.53	574.96	558.6	458.45000000000005	508.90000000000003	540.4300000000001	482.44	456.14	516.98	553.02	532.28	565.54	477.63	529.06
287	14067.0	14698.0	208.2	207.10000000000002	206.39	210.9	208.68	207.7	206.66	206.57999999999998	206.5	209.18	206.34	204.38	207.78000000000003	203.88	208.8	204.48000000000002	204.77999999999997	206.33	206.64	206.49	209.04	204.38	208.38	205.94000000000003	203.0	204.8	207.4
288	3316.0	8498.0	354.47	393.22	387.06	306.18	354.58000000000004	348.51	372.04	373.96000000000004	387.97999999999996	349.38	374.1	432.08	358.65	362.74	329.90000000000003	370.62	350.28	383.51	374.46000000000004	350.38	347.12	356.38	328.54	384.58000000000004	410.3	327.46000000000004	365.26
289	8249.0	16356.0	555.22	519.55	358.4	641.5	523.1	497.58	514.52	512.98	293.58000000000004	463.64	404.98	591.3199999999999	512.78	511.94000000000005	544.5	426.68	484.59000000000003	435.40999999999997	391.94	506.36	309.5	547.45	292.88	497.54	325.64	456.94	459.90999999999997
290	20835.0	1409.0	458.13	390.26	426.1	569.7	462.14	454.77000000000004	411.1	494.85999999999996	436.49	346.74	352.20000000000005	361.70000000000005	512.89	494.06	481.83000000000004	415.4	585.48	493.06	450.73	483.28000000000003	336.34000000000003	459.14	500.42	431.89	412.48	522.2	583.6
291	5774.0	5283.0	417.29	390.68	320.58000000000004	455.64000000000004	407.3	392.82	426.94	392.70000000000005	429.44	407.82	422.76	418.9	379.34	388.68	444.4	387.01	427.22	396.59	265.4	430.68	407.27	398.84000000000003	390.53000000000003	412.58000000000004	332.36	407.64	407.84
292	5525.0	2719.0	387.86	395.28	375.46000000000004	381.58000000000004	452.34000000000003	390.18	427.64	394.1	457.38	434.31	475.75	347.05	358.22	308.52	344.68	403.55	346.21000000000004	471.65999999999997	415.24	236.76	440.01	459.64	355.55	278.4	424.32	364.51	428.64
293	8068.0	3454.0	292.67	509.26	455.68	512.96	391.78	421.21000000000004	469.86	472.8	475.74	456.36	446.4	407.6	444.12	410.26000000000005	393.11	518.29	433.70000000000005	474.92	458.41999999999996	492.08000000000004	454.8	442.40999999999997	466.72	545.78	485.04	464.46000000000004	434.4
294	1031.0	7656.0	343.05	438.86	413.98	400.86	332.28	400.08	351.58000000000004	333.82	380.9	375.20000000000005	326.46000000000004	425.75	398.88	359.58000000000004	368.53999999999996	397.85	391.93	347.16	370.4	414.08000000000004	349.06	388.68	318.21	381.18	367.88	319.6	318.6
295	7900.0	16439.0	414.65	445.82	476.88	423.66	370.92999999999995	389.03999999999996	418.98	417.56000000000006	423.71999999999997	402.5	363.82000000000005	370.5	245.48000000000002	338.59000000000003	369.65000000000003	421.36	424.0	323.20000000000005	325.52	368.53	387.78999999999996	419.47999999999996	377.6	355.07000000000005	297.53999999999996	385.68	364.20000000000005
296	758.0	5284.0	350.67999999999995	384.14	341.3	415.4	342.48	344.16	390.12	334.18	334.26	441.75000000000006	335.1	321.6	370.48	374.23	342.45000000000005	406.1	421.28	343.15	424.12	396.48	362.69000000000005	360.24	379.40999999999997	341.28000000000003	358.48	396.67	343.48
297	15217.0	20525.0	267.96000000000004	444.21000000000004	428.53999999999996	438.21	415.74	408.20000000000005	473.68000000000006	478.22	409.54	481.46000000000004	481.34	469.58	469.53999999999996	476.48	465.1	437.5	451.74	462.86	445.57000000000005	452.8	398.86	478.8	464.90999999999997	485.64	445.5	435.91999999999996	460.05
298	3015.0	14098.0	462.98	416.9	421.68	392.09000000000003	417.98	447.0	418.3	415.98	430.33	392.97	445.4	393.1	456.94	422.1700000000001	380.36	353.68	430.21000000000004	370.48	396.94	398.09000000000003	459.49	401.78	416.70000000000005	406.91999999999996	400.08000000000004	375.72	401.4
299	10429.0	12179.0	351.4	382.17	352.53	387.64	366.56	362.42	376.14	341.55	314.0	366.45000000000005	451.08000000000004	362.1	414.74	448.58000000000004	399.46000000000004	360.51	422.74	368.6	266.72	403.97	287.0	341.14	384.96000000000004	369.25	321.4	358.67	416.1
300	4094.0	13173.0	547.2	499.56	593.5	505.53000000000003	452.79999999999995	581.1200000000001	586.06	509.24	430.70000000000005	565.6700000000001	488.55999999999995	655.98	569.38	559.63	515.08	518.81	448.12	572.24	449.4	561.0	532.5600000000001	508.11	590.19	520.21	661.6600000000001	404.5	522.7
301	19461.0	13701.0	332.56000000000006	423.14	540.48	479.4	435.1	464.72	552.4000000000001	451.18000000000006	462.34000000000003	543.6	485.59000000000003	519.1800000000001	451.7	432.06000000000006	384.18	452.11	424.49	399.96	466.16	310.68	479.96000000000004	487.26	444.52	388.37	487.5	469.6599999999999	447.78
302	1654.0	9859.0	427.59999999999997	373.74	358.68	335.83000000000004	375.46000000000004	378.42	448.01	385.27	377.78	364.24	372.76	396.66	370.99	393.46	357.33000000000004	372.11	398.77	370.93	353.5	368.0	355.93000000000006	372.6	338.08000000000004	372.3	326.70000000000005	368.76	406.3
303	3138.0	3256.0	411.4	332.28	385.54	401.74	413.62	301.67	337.89	392.44	390.64	432.88	336.88	465.24	324.38	407.6	337.88	459.0	397.28	440.93	344.70000000000005	395.32	295.2	486.9	477.38	407.71000000000004	373.64	414.48	344.67
304	3892.0	8741.0	413.20000000000005	446.84000000000003	420.88	374.44	404.72	421.75	370.78	450.4	417.18	413.78	376.64	383.26	378.36	407.20000000000005	383.78	404.05999999999995	438.48	428.08	469.11	430.51	500.08000000000004	402.83	420.78	456.77000000000004	479.94	418.78000000000003	400.09000000000003
305	6065.0	4971.0	457.76	458.26	432.58000000000004	392.18	409.3	431.12	434.33000000000004	434.36	410.48	477.08000000000004	437.27000000000004	439.3	377.34000000000003	415.09000000000003	423.76	380.4	445.92999999999995	433.48	441.88000000000005	447.96000000000004	518.5	415.84999999999997	405.64000000000004	437.24	468.96000000000004	470.84000000000003	436.8
306	1072.0	5061.0	352.6	367.40000000000003	330.98	381.3	393.12	367.0	349.28000000000003	362.09000000000003	327.58000000000004	400.21000000000004	377.38	394.82	429.59000000000003	425.54	409.36	376.24	478.14	411.28000000000003	393.4	397.38	362.96000000000004	362.93	392.23	401.37	345.98	550.14	379.40000000000003
307	7939.0	8236.0	341.21000000000004	349.24	317.17999999999995	354.09999999999997	313.96000000000004	317.18	331.42999999999995	345.18	351.86	321.62	334.78	372.61	322.94	309.28	308.57	391.02	317.68	361.0	391.79999999999995	302.68	331.68	378.8	319.51	303.68	243.8	400.78	359.14000000000004
308	3287.0	2051.0	400.85	361.49	459.58	376.4	367.64	422.72	417.77	462.94	382.84000000000003	347.23	287.93	576.1600000000001	420.99	509.28	402.28999999999996	394.03999999999996	256.06	421.5	463.84	256.5	270.28000000000003	397.06000000000006	420.40000000000003	321.20000000000005	470.78000000000003	465.64	445.36
309	22000.0	8832.0	376.44	348.98	356.28	385.48	401.5	358.86	328.3	364.85999999999996	411.64	385.64	340.98	355.4	280.6	412.03999999999996	372.5	372.4	411.36	349.01	298.4	361.9	319.6	399.58000000000004	345.58000000000004	338.9	340.94	373.28	332.68
310	10199.0	616.0	574.35	700.5	620.73	645.08	544.64	630.21	639.5699999999999	640.52	583.8399999999999	568.0600000000001	773.0	689.14	604.1800000000001	662.99	621.54	581.1199999999999	644.04	677.22	612.96	629.24	684.9	626.2	626.28	644.86	623.88	630.48	607.92
311	5033.0	618.0	456.33000000000004	469.67	413.76	497.90000000000003	502.26	482.65999999999997	461.84000000000003	523.26	610.16	455.38	434.46000000000004	452.12	591.86	497.69	356.32	479.64	442.24	361.84000000000003	378.42	414.13	413.38	460.68999999999994	384.28	480.41999999999996	423.28	470.36	388.1
312	2576.0	2682.0	427.11	377.76	421.26	387.0	394.28999999999996	386.44000000000005	439.13	375.3	379.62	389.28000000000003	376.12	418.16	258.96000000000004	388.58	363.86	414.96000000000004	489.16	370.53999999999996	461.53999999999996	402.26	403.40999999999997	302.76	285.38	399.19000000000005	442.88	419.44	375.58000000000004
313	11520.0	22475.0	340.0	338.34000000000003	377.18	245.28	379.06000000000006	323.68	322.46000000000004	326.45	341.23	289.45	374.15	377.69	325.84000000000003	323.47	346.63000000000005	337.22	357.08000000000004	311.46	409.65999999999997	397.98	388.01	311.61	308.14	278.42	347.74	375.38	373.78999999999996
314	9092.0	1450.0	466.87	423.18	417.64	418.55	415.99	346.96	433.72	433.46000000000004	443.90999999999997	424.52	473.91999999999996	405.86	442.46000000000004	397.18	437.22	404.88	434.76	446.57000000000005	410.38	451.18	342.28	453.46000000000004	440.3	435.83000000000004	424.06000000000006	401.83000000000004	390.08000000000004
315	10641.0	1678.0	505.69000000000005	510.17	388.24	366.05	435.36	530.8199999999999	445.70000000000005	395.46000000000004	403.26	423.74	477.40999999999997	378.3	506.05	389.08000000000004	436.44	430.73	372.99	442.51	457.14	498.14	566.46	442.34	377.22	429.55	404.96	460.21000000000004	469.68
316	6517.0	2653.0	299.20000000000005	379.06	302.52	347.58000000000004	318.24	363.64	327.44	326.12	317.26	365.37	357.3	342.46000000000004	321.53999999999996	296.20000000000005	394.14	305.20000000000005	336.88	325.18	374.44	370.54	337.91999999999996	363.18	349.22	353.3	342.17999999999995	348.73	335.40000000000003
317	11927.0	14123.0	311.58000000000004	286.26	365.88	275.48	311.89000000000004	308.1	362.8	292.26	326.3	360.43	347.0	248.74	301.28	314.06000000000006	333.32	363.53999999999996	336.24	323.5	315.71	303.32000000000005	313.08000000000004	299.08000000000004	311.27	324.23	267.68	311.13	284.27
318	3558.0	7922.0	350.08000000000004	372.14	396.78	385.6	358.03000000000003	360.37	361.61	377.69	362.84	343.16	367.66	350.67	405.56	340.20000000000005	387.3	378.71000000000004	368.40999999999997	394.36	448.64	383.1	364.84000000000003	362.32000000000005	330.58000000000004	361.9	352.13000000000005	376.58000000000004	383.88
319	4299.0	769.0	433.11	448.03	502.72	524.76	402.96	525.8800000000001	514.08	706.78	714.6699999999998	442.82	464.15	489.38	426.03999999999996	440.6	411.11	292.88	485.93	661.24	466.3	414.25	488.02000000000004	473.25	380.44	530.22	292.76	321.20000000000005	321.16
320	5144.0	8789.0	363.78	434.52	436.86	415.8	474.53000000000003	426.41	405.08000000000004	405.98	391.56000000000006	406.8	472.49	453.37	361.14	530.45	511.45	414.49	451.72	369.5	346.78999999999996	489.68	395.36	392.82	302.16	444.03000000000003	445.68	449.78	424.82
321	5867.0	7682.0	389.17999999999995	364.86	359.36	367.64	359.38	339.22	347.29	354.5	339.0	355.64	337.46000000000004	358.9	335.86	354.28	357.36	336.45	344.72	374.53000000000003	307.82	363.14	373.58	343.4	365.8	314.36	371.03999999999996	374.93	347.12
322	11644.0	10357.0	566.2	541.6800000000001	559.53	470.42	544.1800000000001	505.48	631.22	548.6	493.09000000000003	523.35	506.06000000000006	494.72999999999996	644.64	559.12	474.96000000000004	495.61	495.70000000000005	534.4	616.1800000000001	475.36	480.53999999999996	511.86	663.0799999999999	559.49	644.45	497.4	514.82
323	15820.0	19873.0	486.3	583.82	493.58000000000004	466.17	474.86	454.76	504.07	563.2	440.47999999999996	497.68	484.09000000000003	552.8	503.66	479.99	419.62	506.0	467.72	511.18	483.81000000000006	515.88	531.77	594.76	410.66	374.91	503.02000000000004	465.84000000000003	481.36
324	7964.0	14096.0	369.64	427.9	382.68	381.68	413.95000000000005	357.48	351.53000000000003	362.89	336.62	441.58000000000004	336.38	286.15999999999997	374.24	470.72	378.64	353.11	435.55999999999995	271.84000000000003	364.3	232.48000000000002	342.26	330.03000000000003	378.05999999999995	392.14	309.26	348.23	374.3
325	5375.0	18605.0	704.48	293.28	480.74	418.18	481.22	462.78000000000003	531.22	506.24	473.04	577.5	365.6	526.94	572.26	471.23	550.78	416.74	602.8	383.01	281.8	334.28	447.18	592.7	570.0600000000001	543.98	658.26	599.3	545.8
326	2999.0	7007.0	354.76	379.94	452.8	395.59000000000003	395.95	398.86	380.86	425.86	335.41999999999996	414.72	391.41999999999996	410.48	340.56000000000006	364.83	345.02000000000004	395.97	327.26	388.1	378.22	350.53999999999996	402.06	348.78	360.28999999999996	406.06000000000006	426.7	328.9	386.52
327	7303.0	7391.0	267.02	281.28	412.01	435.28999999999996	367.83000000000004	363.5	356.26	392.41999999999996	457.6	397.28	416.46	451.94	280.48	427.58000000000004	371.1	456.75	446.6	406.89000000000004	339.99999999999994	402.09	335.28	486.18	424.94	338.9	280.38	390.98	432.08000000000004
328	6598.0	21251.0	498.08000000000004	408.06000000000006	416.86	439.8	453.03999999999996	430.86	438.65999999999997	449.06000000000006	438.16	441.66	441.44	452.70000000000005	438.73	442.76	395.5	441.92	449.13	469.96000000000004	446.02	379.71	467.8	457.40000000000003	414.70000000000005	441.26	473.86	423.1	433.84000000000003
329	7389.0	11431.0	406.12	331.0	411.72	356.13	359.66999999999996	389.38	356.65	383.88	326.96000000000004	297.32000000000005	385.1	345.36	309.6	382.32	295.45	296.94	364.20000000000005	336.09000000000003	359.46000000000004	342.43999999999994	333.34000000000003	360.47	377.9	348.14	289.46000000000004	322.54	399.91999999999996
330	2817.0	10856.0	395.35	382.6	454.06	471.52	490.83	388.78	467.16	422.6	456.38	458.03999999999996	506.98	432.53	454.78	479.16	497.61999999999995	451.8	428.15	441.33	419.1	425.6	404.32	469.49	441.18	428.18	467.58	406.32000000000005	443.53000000000003
331	12559.0	15588.0	262.18	228.26	240.8	236.7	240.24	247.70000000000002	238.60000000000002	233.66	255.2	237.5	243.19000000000003	234.77	254.68	246.83999999999997	243.2	246.96	253.44	247.76	249.27	231.38	237.55	249.38000000000002	229.60000000000002	239.38	245.98000000000002	247.33	232.45999999999998
332	7943.0	1307.0	449.38	490.77	471.66	466.26	362.28	374.84000000000003	400.44	473.46	298.18	483.52	446.97	409.53999999999996	363.03999999999996	412.73	455.6	468.52	455.84000000000003	298.38	428.84000000000003	410.98	407.9	451.97	470.06	410.84000000000003	409.65	284.48	494.24
333	1587.0	20909.0	391.78	476.16	321.12	402.58000000000004	333.86	418.88	406.47	441.4	406.84000000000003	338.56000000000006	416.70000000000005	421.48	303.24	427.81	319.78	406.18	420.57	430.1	375.85	419.46000000000004	398.83000000000004	432.18	408.03999999999996	417.78	387.58	393.43000000000006	397.28
334	4978.0	8542.0	309.88	376.14	346.70000000000005	368.34000000000003	351.57	335.76	398.34000000000003	367.64	341.99	367.1	330.83000000000004	366.98	376.14	339.56000000000006	308.22	336.73	346.4	410.9	323.51	319.18	325.47	341.08000000000004	420.20000000000005	318.46000000000004	374.5400000000001	312.59000000000003	393.61
335	10661.0	20830.0	571.44	389.99	535.38	557.48	515.0600000000001	581.95	550.28	506.96000000000004	566.0699999999999	488.58000000000004	413.3	335.82	364.86	511.34000000000003	521.14	531.39	432.42	504.17999999999995	480.8	555.9000000000001	643.09	593.33	519.36	527.4000000000001	269.16999999999996	437.53999999999996	471.55999999999995
336	22121.0	9602.0	464.19	395.82	529.23	463.36	374.74	389.71000000000004	533.12	456.76	474.90000000000003	519.47	408.62	442.58000000000004	521.6	442.28000000000003	436.66	536.4000000000001	486.08000000000004	426.88	386.44	404.5799999999999	350.14	417.34	479.68	334.15000000000003	498.57000000000005	371.96000000000004	404.86
337	7211.0	7842.0	271.28000000000003	370.14	367.5	327.62	330.88	409.0	375.67	381.82	403.88	388.37	307.46000000000004	327.66	362.16	280.56	380.55	395.14	411.68	367.53999999999996	375.66	273.18	404.86	338.16	399.22	395.08000000000004	414.52	370.4	328.56
338	3505.0	11164.0	373.8	449.17	436.62	477.51000000000005	350.58000000000004	358.37	395.15999999999997	466.90000000000003	450.56000000000006	410.12	371.24	363.21000000000004	456.4	460.84	403.98	354.14	449.36	403.8	341.95	432.35	493.06000000000006	383.02	456.14	387.39	595.3	421.66	382.6
339	21292.0	2357.0	495.28000000000003	501.61	517.11	541.73	506.68	399.94	475.36	485.68	498.72	510.42	446.9	458.14	426.9	447.39	429.09	452.75	533.3399999999999	476.9	293.6	508.91999999999996	533.73	516.74	514.16	417.68	483.32	492.85999999999996	503.88
340	7927.0	4462.0	522.8	421.02	525.6600000000001	432.95	450.52	444.28	447.65999999999997	460.06	509.48	403.15999999999997	506.44	442.52	564.28	534.38	460.32000000000005	504.08000000000004	442.08000000000004	513.54	425.36	476.68	489.13	485.08	507.7	513.96	401.78	462.92	421.24
341	18822.0	17881.0	350.68	331.45000000000005	320.95	398.21000000000004	384.22	352.75999999999993	348.78	374.66	344.3	244.24	397.55	347.14	330.68	382.96000000000004	332.53999999999996	311.26	349.77	345.4	411.6	429.15000000000003	353.33000000000004	362.86	326.12	365.0	346.33	337.78000000000003	346.81
342	6392.0	3583.0	376.03999999999996	430.24	358.29999999999995	413.86	359.18	380.70000000000005	340.38	407.54	428.66	344.5	375.34000000000003	397.08000000000004	333.78	447.32	386.38	335.28	389.68000000000006	381.82	450.53999999999996	387.32	369.1	395.15000000000003	323.38	361.19	388.13	441.56000000000006	452.56000000000006
343	7351.0	3602.0	422.66	393.0	421.0	435.38	384.31000000000006	415.21	386.20000000000005	421.94	358.28	409.41999999999996	370.03999999999996	438.98	390.66	429.84000000000003	406.16	381.74	429.18	363.20000000000005	433.66	361.74	398.72	396.9	406.34000000000003	418.02	513.79	388.89	418.24
344	3822.0	11173.0	393.67999999999995	399.16	389.38	388.92	402.42	388.36	411.71999999999997	376.76	457.5799999999999	437.28000000000003	399.24	383.55	424.58000000000004	447.48	483.1	389.8	401.48	373.82	467.65999999999997	399.31	414.74	365.34000000000003	395.6	382.56	397.5	403.71	369.58
345	13860.0	22508.0	543.96	515.24	498.79	630.78	586.2	558.1600000000001	604.56	507.3	429.02	539.24	560.22	436.76	420.1	507.74	398.64	374.70000000000005	458.71000000000004	413.3	471.28000000000003	535.3399999999999	487.4	441.77	442.66	462.3	456.2	504.48	486.56
346	6755.0	22216.0	394.88	410.40999999999997	420.0	459.8	408.1	442.03999999999996	426.14	401.34000000000003	471.79	426.18	375.46000000000004	374.58	413.82	416.84	418.18	438.20000000000005	424.18	361.6	442.8	517.98	479.81	391.44	408.24	420.5	423.08	406.33	434.26
347	5999.0	12549.0	292.5	382.44	388.6	358.36	333.93000000000006	357.58000000000004	387.96000000000004	374.83	369.08000000000004	347.71	380.41	300.98	347.58000000000004	393.82	373.12	378.75	279.38	364.08	416.93	381.95000000000005	383.98	410.46000000000004	371.37	349.14	329.91999999999996	323.41	399.53999999999996
348	11309.0	13838.0	370.24	281.26	359.42	421.3	401.13	362.18	431.96000000000004	406.64	363.53999999999996	400.22	391.35	363.34000000000003	418.38	375.3	357.71000000000004	370.58000000000004	423.70000000000005	357.8	306.8	429.41	419.59000000000003	376.28999999999996	365.76	356.33	261.08000000000004	341.88	329.06000000000006
349	15299.0	20065.0	393.51000000000005	420.56	373.1	480.08000000000004	450.77	393.14	407.6	404.75	535.3199999999999	345.68	426.66	389.02	421.06000000000006	446.81	432.08000000000004	471.23	425.98	404.5199999999999	263.8	378.8	349.53999999999996	436.40000000000003	414.03	417.9	468.18000000000006	404.15	390.44
350	9998.0	14560.0	596.25	466.6	431.88	440.0	537.26	450.27000000000004	468.61	514.98	473.48	497.21000000000004	432.76	501.81999999999994	497.93	469.65	508.87	477.61	444.38	480.58000000000004	569.1600000000001	559.11	438.6	465.3	544.9000000000001	366.53000000000003	488.64	464.88	433.67999999999995
351	6118.0	4335.0	518.76	277.0	453.62	450.44	492.46000000000004	501.6	502.40000000000003	484.16	465.62	466.83	539.28	584.02	509.15000000000003	440.4	466.75	542.3900000000001	523.6600000000001	429.03	508.08000000000004	550.25	471.84	469.8	405.83000000000004	511.33000000000004	402.64	511.94	482.64
352	7405.0	6235.0	526.94	480.03999999999996	344.4	449.28000000000003	520.06	425.83000000000004	387.16	376.8	459.11	368.99	333.62	291.22	417.78	473.13	444.7	410.51	534.6600000000001	671.76	532.64	471.63	404.38	415.58000000000004	462.88	573.88	624.26	543.98	505.06
353	6989.0	13087.0	267.06	341.08000000000004	334.96	402.98	352.65	370.62	358.28	373.41999999999996	349.66999999999996	428.06000000000006	333.59	367.88	349.64	372.22	333.70000000000005	464.9	386.94	363.17	321.86	404.76	421.96000000000004	291.74	434.20000000000005	356.45000000000005	243.74	355.15	434.34000000000003
354	5153.0	2418.0	337.84999999999997	358.39	378.17999999999995	362.55	387.68	375.39	305.15999999999997	383.08000000000004	355.3	371.76	342.82	315.91999999999996	331.21000000000004	282.28	440.46000000000004	356.81	359.65	290.0	340.1	369.88	322.53999999999996	346.62	425.5	436.25	395.5	306.0	352.37
355	3575.0	8171.0	368.70000000000005	436.3	418.20000000000005	524.06	400.84	454.02000000000004	342.58000000000004	508.45000000000005	413.64	390.98	398.1	456.94	428.85	453.38	378.6	453.98	371.88	457.85	543.38	431.9	363.22999999999996	431.02	400.20000000000005	418.71999999999997	478.78000000000003	436.86	468.21000000000004
356	4304.0	17013.0	452.0	451.76	574.6	479.03	530.62	452.78	381.76	368.3	338.63	439.4	609.75	570.62	484.05999999999995	521.76	340.46000000000004	499.68	515.0799999999999	481.97999999999996	305.2	568.54	384.0	604.0799999999999	648.64	316.49	504.58	450.47	487.56
357	2811.0	12066.0	322.26	469.98	428.76	424.03999999999996	456.05999999999995	387.75	483.15	433.36	345.88	432.0	434.06000000000006	423.20000000000005	436.88	423.46999999999997	407.81	378.9	340.63	420.08000000000004	376.99	445.22	432.59999999999997	422.04	295.1	440.19000000000005	402.21000000000004	398.22	396.56000000000006
358	4851.0	9089.0	339.6	310.0	317.20000000000005	376.16	364.20000000000005	324.26	318.70000000000005	344.9	303.64	356.18	323.63	305.34000000000003	275.4	373.4	303.96000000000004	312.52	336.92999999999995	371.55	283.62	343.08	387.98	357.53999999999996	344.18	377.07	328.89	347.70000000000005	345.53999999999996
359	21719.0	22352.0	295.32	406.01	415.40999999999997	525.66	378.38	401.08	339.4	388.9	370.85	313.62	365.37	314.55999999999995	363.1	343.58	407.66999999999996	315.92	362.28	416.95000000000005	407.92999999999995	417.12	416.77	424.76	387.14	329.08000000000004	298.36	325.86	354.88
360	4989.0	11917.0	509.46	458.86	403.88	456.9	414.41999999999996	397.0	428.88	424.24	451.66	414.5	447.56000000000006	393.82	463.40999999999997	385.78	473.46000000000004	425.58	438.59000000000003	473.07	466.22	461.93	418.73	421.78	438.36	352.66	298.96000000000004	412.97	440.82
361	186.0	1170.0	516.1	482.74	556.26	513.6	428.68	416.28	468.82	437.52	491.64	437.58	469.12	571.1500000000001	480.88	449.38	425.45000000000005	452.0	441.5	543.29	515.45	476.65999999999997	566.14	470.96000000000004	485.03999999999996	445.51	624.89	506.38	486.22
362	1200.0	6999.0	378.03999999999996	368.9	481.68	434.84000000000003	408.03999999999996	480.4	445.46000000000004	413.97	496.78000000000003	421.05	351.62	588.78	463.32	447.59000000000003	359.09000000000003	495.37	461.43	386.13	407.4	455.28000000000003	416.8	391.26	497.68	419.56000000000006	417.69	411.26	459.72
363	5676.0	12571.0	433.53000000000003	496.86	397.82	371.28000000000003	409.6	429.08000000000004	429.48	420.74	429.53000000000003	442.57	395.86	441.4	426.72	412.8	422.12	355.46000000000004	414.1	478.42	428.84000000000003	395.91999999999996	411.55	402.47	421.48	332.56000000000006	408.16	442.88	430.77
364	7403.0	7609.0	276.98	279.84000000000003	273.98	281.38	276.3	276.83000000000004	275.15	278.71999999999997	275.53	273.09000000000003	275.28	269.49	285.0	275.59000000000003	277.8	268.65999999999997	271.28000000000003	274.5	272.98	272.15	284.28	280.03999999999996	279.1	274.9	266.36	308.33000000000004	280.3
365	1078.0	18901.0	460.74	385.15999999999997	397.26	362.63	392.05	429.26	441.8	383.20000000000005	419.84000000000003	397.74	343.03	413.86	425.28	389.78	346.65999999999997	442.5	374.5	404.61	422.0	443.53999999999996	409.3	433.87	386.17999999999995	390.28	447.93	392.78	426.0
366	17356.0	10977.0	504.94	379.74	378.26	485.44	394.19	461.68	433.74	410.20000000000005	556.77	473.85	479.9	458.58000000000004	442.07	384.06000000000006	498.58	398.06	426.68	368.32000000000005	347.48	336.12	420.06000000000006	348.45000000000005	442.88	454.28000000000003	295.20000000000005	360.15999999999997	460.13
367	4246.0	17129.0	487.58	559.36	458.97999999999996	561.86	341.8	431.76	483.2	458.97	513.4200000000001	455.46	427.88	396.34000000000003	442.02	437.53999999999996	573.3599999999999	618.8100000000001	531.6700000000001	395.28	359.37	415.3999999999999	421.0	509.74	488.42	604.9000000000001	403.07000000000005	501.36	437.17999999999995
368	4572.0	4995.0	463.44	406.34000000000003	469.27	443.04999999999995	467.76	517.1200000000001	511.28	486.53	504.28000000000003	442.78	446.75	577.44	569.6600000000001	467.26	458.07	499.03000000000003	506.0	414.28	465.81	429.68	502.68	459.52	492.62	482.4	383.7	444.03	437.3
369	6746.0	20720.0	300.28	384.95000000000005	380.11	447.51	470.96000000000004	416.22	399.32	396.38	369.88	401.84000000000003	377.36	433.76	416.3	424.04999999999995	417.70000000000005	402.87	422.68	417.82	382.26	318.88	280.82	385.5	416.12	410.09	416.26	499.9	402.84000000000003
370	1183.0	3463.0	530.6999999999999	383.20000000000005	427.42	400.99	422.24	412.99	406.5	463.12	508.40000000000003	628.46	412.06000000000006	570.5699999999999	570.0799999999999	572.87	334.26	429.13	479.66	494.86	518.6	545.28	575.78	578.0500000000001	556.88	606.1800000000001	344.33	454.56000000000006	439.30999999999995
371	4162.0	17241.0	445.56000000000006	437.88	461.03999999999996	304.14000000000004	377.47	426.94	398.88	373.45000000000005	274.52	430.65	422.32	349.08000000000004	428.20000000000005	356.88	412.5	409.38	384.68	339.38	478.08000000000004	297.52	451.28000000000003	296.38	360.64	412.81	303.76	333.84000000000003	334.20000000000005
372	3384.0	17492.0	343.24	284.16	329.77	390.1	326.02	321.32	350.16999999999996	335.28	333.29	330.44	359.66999999999996	344.09000000000003	390.59000000000003	350.1	301.32	317.59000000000003	334.65	344.1	390.15999999999997	340.4	331.14	369.28	350.02	268.82	376.55	373.6	350.1
373	11603.0	22792.0	289.07000000000005	285.84000000000003	289.3	341.84000000000003	319.3	295.36	301.27	314.65999999999997	294.26	326.77	353.9	329.06000000000006	337.52	320.38	304.24	285.76	292.3	336.32	253.62	311.26	264.20000000000005	313.3	357.14	306.31	328.62	293.27	268.93
374	8078.0	22604.0	386.38	487.78000000000003	329.1	397.8	381.20000000000005	309.03	354.46000000000004	483.56	337.15999999999997	483.65	372.05	358.38	454.86	365.8	346.57	501.02	467.32000000000005	401.84	485.48	450.45	360.69	369.5	350.67999999999995	474.34000000000003	503.7	281.78	321.52
375	14691.0	20158.0	391.82	321.91	372.18	322.48	410.94	301.08000000000004	371.88	360.74	417.42999999999995	428.65	417.08000000000004	348.33000000000004	383.61	377.46	341.72	376.52	377.91999999999996	375.77	411.13	353.05	368.56	401.84000000000003	388.33000000000004	380.17999999999995	376.78	394.72	338.19
376	15885.0	19276.0	337.96000000000004	293.1	418.74	430.4	349.4	381.09000000000003	392.31	374.70000000000005	518.36	401.72	359.89	455.98	272.98	284.84000000000003	368.1	461.72	365.34000000000003	410.1	347.13	303.34000000000003	379.7	384.43	214.68	351.28	356.4	351.22	329.06000000000006
377	1329.0	9172.0	316.08	357.46000000000004	343.53999999999996	371.77	371.59000000000003	332.41	339.51	344.88	368.46000000000004	350.56000000000006	414.88	318.38	377.84	364.77000000000004	409.13	370.56000000000006	365.36	403.31	304.94	349.03999999999996	321.76	329.04	320.97	365.58000000000004	372.08000000000004	389.93	378.16
378	600.0	9409.0	387.48	401.98	381.27000000000004	395.20000000000005	393.3	410.31	381.37	407.8	432.48	418.1	402.98	393.94	407.48	393.97	551.9200000000001	386.38	413.78	399.0	407.49	414.58000000000004	404.74	440.76	381.96	401.88	365.39	398.08000000000004	418.25
379	6235.0	14454.0	345.88	328.65	369.72	352.20000000000005	453.76	393.78	439.91999999999996	388.12	431.68	338.48	316.44	373.17999999999995	385.76	402.1	286.36	354.28	383.8	300.26	363.26	462.8	310.70000000000005	346.03999999999996	356.7099999999999	366.94	378.08000000000004	367.62	335.11
380	1449.0	12169.0	424.94	363.23	462.01	415.44	453.36	397.62	348.69	372.42999999999995	606.0	378.89000000000004	408.18	346.53999999999996	376.02	423.5	460.18	433.1	432.21000000000004	325.81	387.42	398.46000000000004	383.38	390.15999999999997	441.38	381.98	292.68	367.49	435.0
381	2700.0	15406.0	484.4200000000001	422.94	425.3	475.5	373.86	393.94	469.02	479.0	317.58000000000004	398.58000000000004	417.39	421.75	436.75	499.89	369.41999999999996	435.24	464.42	467.74	474.3	443.1	469.86	404.28999999999996	393.94	458.51	370.39	505.38	425.69
382	20827.0	9259.0	492.16	436.27	480.13	578.29	590.37	457.63	597.99	560.98	478.48	598.5	524.4200000000001	482.57	633.36	594.63	517.45	605.3199999999999	519.4799999999999	332.68	609.65	430.0	456.96	525.69	466.12	456.40000000000003	458.01	457.65	544.78
383	16025.0	15174.0	409.72999999999996	345.02	420.12	399.94	363.98	382.68	400.09	375.09000000000003	375.38	426.03	364.91999999999996	360.9	378.34000000000003	389.20000000000005	363.1	394.68	363.24	447.88	353.58000000000004	343.70000000000005	353.04	385.20000000000005	411.06000000000006	424.86	671.02	357.47	393.24
384	4470.0	17086.0	441.48	450.4	454.22	493.38	472.64	448.41	463.1	436.3	442.91999999999996	466.06000000000006	462.62	465.36	457.53999999999996	489.06	478.28000000000003	431.41999999999996	461.77000000000004	468.68	312.06	481.34999999999997	464.26	477.17	482.0	438.20000000000005	401.5	431.88	438.42
385	6976.0	2920.0	452.14	419.70000000000005	495.49000000000007	336.6	499.08000000000004	390.32	375.08000000000004	468.25	495.0	431.74	521.23	467.72	461.74	490.87	361.0	454.44000000000005	460.08000000000004	397.95	384.84	411.77	442.06	432.54	419.98	433.5	332.82	459.3	384.08000000000004
386	6907.0	2676.0	289.91	380.02	350.8	323.44	355.68	341.12	355.08000000000004	351.94	308.70000000000005	343.14	389.20000000000005	332.78	322.08000000000004	318.62	290.28	359.78000000000003	343.7	359.14	382.56000000000006	326.46000000000004	388.78	347.46000000000004	402.14	347.72	359.11	375.66	342.84000000000003
387	5441.0	5909.0	549.3499999999999	418.06000000000006	532.96	384.18	576.56	490.19	567.0699999999999	539.8399999999999	552.9200000000001	534.73	465.24	669.78	312.66	537.74	540.8399999999999	571.58	449.82	495.73	293.96000000000004	463.90000000000003	563.6600000000001	519.25	426.20000000000005	413.59000000000003	516.67	525.8000000000001	456.75
388	14817.0	14193.0	596.7	415.05999999999995	494.86	412.09000000000003	313.68	446.75	361.49	492.52	530.0799999999999	494.48	463.6	645.9200000000001	511.78000000000003	445.64	448.16999999999996	394.12	439.52	387.19000000000005	525.6800000000001	545.4000000000001	525.08	486.40000000000003	488.1700000000001	426.4	254.38	461.84000000000003	435.40999999999997
389	17972.0	9646.0	389.47999999999996	449.72	450.99	410.4	469.03000000000003	434.53000000000003	439.08	464.9	443.56	471.72	456.1	518.6	461.05	429.72	432.63	443.9	444.21000000000004	479.31	380.06000000000006	478.78000000000003	465.06000000000006	484.05	439.38	498.38	425.66	465.56	478.67
390	7888.0	8404.0	413.72	408.08000000000004	404.03999999999996	353.45000000000005	344.58000000000004	372.41	362.69000000000005	367.18	327.62	325.70000000000005	389.44000000000005	410.97	364.03000000000003	368.13	381.28	426.26	355.58000000000004	380.70000000000005	434.4	308.24	368.82	331.0	317.36	392.20000000000005	401.18	316.38	305.68
391	5788.0	16200.0	523.08	516.84	326.36	396.09	475.71999999999997	567.8	488.70000000000005	495.36	535.3	577.06	529.6800000000001	362.0	601.6800000000001	538.96	499.34000000000003	588.74	548.19	518.76	567.9200000000001	520.16	441.58	380.86	510.04	294.03	484.82	375.37	460.48
392	1971.0	16565.0	2464.62	536.1	1418.62	5405.55	4610.74	7038.280000000001	4066.5299999999997	6922.05	2527.66	1017.9799999999998	1043.47	966.23	4975.1	787.14	2014.89	3641.86	1876.3899999999999	2134.52	3988.6500000000005	3016.18	2491.2	2428.63	2505.84	776.17	4322.790000000001	1131.24	1116.56
393	8580.0	9070.0	416.47999999999996	347.68	442.70000000000005	399.20000000000005	390.96000000000004	325.18	371.81	366.38	369.46000000000004	296.28	397.05	311.65999999999997	366.70000000000005	356.84000000000003	345.58000000000004	397.24	338.89	394.58000000000004	400.19	418.48	380.16	353.28	365.88	353.86	279.70000000000005	341.98	371.96000000000004
394	4514.0	1954.0	330.94	320.18	319.08000000000004	305.56	311.09000000000003	308.38	306.78	305.0	317.40999999999997	320.3	318.57000000000005	326.34	295.0	307.75	309.84000000000003	310.28	312.01	298.48	314.2	352.39	317.34000000000003	316.33000000000004	308.2	316.8	600.64	334.76	305.04
395	3809.0	7069.0	400.70000000000005	440.71000000000004	424.16	386.52	418.18	412.34000000000003	383.26000000000005	401.56000000000006	452.53000000000003	402.67	401.8	393.21	427.74	423.9	453.54	426.1	486.14	475.26	439.22	359.35	465.81	343.5	435.88	439.65000000000003	356.58	397.61	386.56000000000006
396	6721.0	7613.0	365.3	383.70000000000005	343.42	403.18	457.98	347.84000000000003	406.44	326.24	370.5	363.94	411.22	285.3	308.40000000000003	331.4	360.73	365.22	384.94	396.65999999999997	296.18	335.18	429.93000000000006	363.48	405.48	308.03999999999996	257.2	380.88	389.36
397	5067.0	10901.0	371.43	501.20000000000005	493.38	367.48	401.4	436.98	394.57	397.6	415.48	445.82	405.97	515.1	445.58	437.5	434.9	468.53999999999996	407.16999999999996	412.19000000000005	541.7	393.78000000000003	452.68	413.98	447.38	453.22	308.36	418.44	470.88
398	5394.0	21104.0	513.2	452.89	328.91	500.58000000000004	379.6	316.48	341.58000000000004	412.06	355.18	483.87000000000006	442.88	336.5	490.15999999999997	441.88	332.70000000000005	331.16	414.22	419.28	458.64000000000004	339.40000000000003	491.66	340.84000000000003	435.66	376.56	475.76	342.3	354.36
399	4425.0	12532.0	374.65999999999997	477.76	343.08000000000004	394.66	400.88	348.53999999999996	388.20000000000005	371.70000000000005	326.99	379.05999999999995	355.8	326.13	351.08000000000004	356.76	360.31	254.48	395.74	369.18	315.9	283.84000000000003	330.96000000000004	376.48	377.23	321.0	405.39	381.47	308.25
400	6684.0	8224.0	294.6	399.72	315.74	313.51	396.72	316.13	324.62	307.15999999999997	334.02	350.29	373.85	320.3	325.04	341.59	331.03999999999996	299.12	336.66	321.15	353.26	377.0	369.58000000000004	386.08000000000004	464.38	373.16	335.58000000000004	352.0	366.20000000000005
401	11083.0	18403.0	516.77	360.82	370.91999999999996	379.65999999999997	515.4200000000001	441.78	311.36	402.84000000000003	339.85	410.06	514.36	382.52	418.36	517.24	368.04	474.7	527.04	515.94	367.78	528.1	469.99999999999994	444.26	470.35	500.35	471.26	546.8299999999999	486.18
402	6173.0	10239.0	343.41999999999996	420.98	354.48	379.48	349.19000000000005	425.05	312.24	362.75	340.96	358.20000000000005	382.94	284.58000000000004	376.9	389.53000000000003	410.8	354.6	339.9	305.19	353.38	314.6	266.48	434.03	348.0	414.48	295.5	419.68	336.22
403	22117.0	18216.0	211.37	210.4	211.77	210.39	215.79	210.93	214.39000000000001	211.63	209.98000000000002	213.94	211.2	208.7	212.68	211.4	213.64000000000001	211.88000000000002	214.9	211.93	209.0	210.68	215.3	213.25	213.15	218.53	214.0	216.95999999999998	211.3
404	1972.0	13188.0	452.70000000000005	419.11	420.3	445.58000000000004	384.94000000000005	383.42	400.72	387.13	368.36	359.8	419.2	464.12	425.01	521.7	451.68	468.46000000000004	353.11	340.56000000000006	463.52000000000004	416.98	429.87	476.19	328.18	433.79	402.76	430.37	403.16
405	3700.0	21082.0	700.0	490.61	487.28	509.92	487.09000000000003	469.32	514.36	425.24	449.71000000000004	402.75	454.38	460.5	487.15	431.96999999999997	455.84000000000003	449.58000000000004	486.94	494.54	372.6	325.53999999999996	470.12	428.26	432.8	410.42	384.32	456.3	429.78
406	1697.0	21137.0	471.96	465.70000000000005	388.43	440.14	375.1	350.77	445.15999999999997	381.16	440.95	345.24	387.94	399.5	426.08	414.69000000000005	383.0	391.91999999999996	380.66	377.79	510.76	375.9	455.13	394.73	383.14	370.8	268.74	360.88	305.32
407	6004.0	5798.0	477.3	557.1800000000001	399.26000000000005	703.9000000000001	330.53999999999996	436.59000000000003	544.86	462.04	609.14	627.6800000000001	369.76	460.70000000000005	434.76	495.48	557.1600000000001	579.2	390.8	489.5	544.8	603.06	557.06	523.64	543.46	501.54	353.48	347.98	442.71000000000004
408	310.0	8291.0	412.98	412.02	413.92	400.36	410.08	443.52000000000004	414.74	404.98	419.66	428.78	425.73	407.9	359.0	345.96000000000004	391.1	440.07	415.28	410.16	430.4	419.44	419.8	463.54	434.08000000000004	386.98	381.4	440.38	404.26
409	5432.0	12749.0	484.28000000000003	349.83000000000004	382.58000000000004	354.24	440.74	354.67	367.98	394.25	351.4	346.68	456.08000000000004	329.15999999999997	288.28	347.56	360.09999999999997	385.76	361.58000000000004	410.86	439.6	416.81	288.9	376.58000000000004	408.57	350.16	263.8	375.8	357.20000000000005
410	9910.0	2287.0	381.09999999999997	320.98	377.71999999999997	287.58000000000004	532.06	499.68	398.96000000000004	378.49	356.1	381.36	532.97	451.49	419.57000000000005	381.19000000000005	522.3	500.3	464.89	398.62	540.96	463.44	403.1	368.36	446.97999999999996	391.12	344.83000000000004	572.61	490.56000000000006
411	22742.0	4784.0	566.36	449.14	474.33000000000004	425.9	447.57000000000005	474.49	447.03000000000003	451.58000000000004	488.9	470.23	455.71000000000004	511.59000000000003	453.77	451.88	477.82000000000005	446.70000000000005	488.36	478.6	465.35	473.4	448.38	442.38	456.21000000000004	414.44	462.24	482.18	453.64
412	22655.0	10926.0	331.26	328.98	355.4	302.8	345.4	329.88	330.08	320.13	329.18	314.74	331.94	334.18	311.0	304.97	301.5	309.1	329.20000000000005	308.48	322.89	275.78	333.8	371.26	327.82000000000005	343.95000000000005	289.5	333.38	306.78000000000003
413	5146.0	2659.0	397.69	457.22	402.18	488.88	451.27	391.67	441.88	369.78	370.38	393.15	401.88	389.18	421.49	421.94000000000005	383.66	280.70000000000005	360.22	381.38	407.08000000000004	381.01	323.0	457.48	379.08	366.6	418.1	374.44	360.84000000000003
414	9932.0	19787.0	409.59999999999997	497.15	497.36	529.8	549.02	526.4000000000001	566.56	474.16	469.72	465.74	543.52	559.8	531.6800000000001	560.4000000000001	540.67	459.5	566.5899999999999	402.65	586.48	444.78	497.1	490.74	520.4000000000001	568.58	492.74	553.58	498.3
415	5071.0	1342.0	455.08000000000004	359.44	502.6	483.9200000000001	506.89	464.98	493.48	520.6700000000001	396.68	549.28	531.83	481.38	525.84	463.02	331.88	465.63	427.8	414.95000000000005	460.12	392.53	455.9	445.13	484.6	485.92	403.20000000000005	475.9699999999999	444.1
416	7486.0	8360.0	419.74	427.17	397.78999999999996	367.32	417.87	368.68	374.72	393.0	423.07	388.17	388.06	341.35	498.78000000000003	388.26	366.65	292.86	374.54999999999995	367.0	378.65999999999997	355.05999999999995	427.49	388.52	406.23	382.41	357.1	395.62	366.58000000000004
417	3643.0	15982.0	273.44	440.62	446.70000000000005	429.96000000000004	415.36	408.37	457.1	450.24	310.58000000000004	428.83	417.78	317.95	538.98	411.23	343.06	310.02	431.34000000000003	312.59000000000003	422.48	294.44	289.96000000000004	333.48	394.41999999999996	403.59000000000003	346.9	398.32	423.41999999999996
418	8965.0	3483.0	411.04	337.6	498.4	531.8	373.33	476.48	496.47	381.24	522.14	370.56000000000006	445.36	377.68	404.88	532.24	467.86	424.17999999999995	485.42	378.59000000000003	442.09000000000003	406.03999999999996	377.78000000000003	505.6	466.1	469.34000000000003	427.56999999999994	469.67999999999995	403.76
419	8503.0	10183.0	470.46	339.98	356.08000000000004	382.86	400.05	384.15000000000003	294.0	380.32000000000005	332.17999999999995	347.15	352.93	259.7	371.19000000000005	356.37	365.24	345.3	327.28	296.73999999999995	362.24	391.58000000000004	376.69000000000005	323.86	340.14	392.47	304.78	389.0	383.03000000000003
420	14552.0	17410.0	571.8399999999999	547.38	440.1	625.4000000000001	574.42	491.42	483.26	469.36	536.8	529.2	466.24	484.75	531.1899999999999	454.17	441.90000000000003	478.28000000000003	550.49	507.59000000000003	494.66	490.12	453.31	454.20000000000005	568.78	522.88	440.0	471.36	415.90999999999997
421	6446.0	7439.0	459.86	418.98	389.53999999999996	391.56000000000006	369.78000000000003	412.27	372.86	428.03999999999996	443.42	398.75	399.61	389.63	393.77	423.74	424.6	425.94	351.09000000000003	398.88	329.05999999999995	418.98	472.92	389.38	375.08	368.88	330.64	419.8	388.09000000000003
422	2051.0	11716.0	434.77	469.03999999999996	382.22	400.82	403.88	411.8	426.94	408.08000000000004	364.1	414.83	412.11	425.35	428.3	413.97999999999996	415.2	402.66	426.34000000000003	412.58000000000004	393.48	385.11	417.53999999999996	460.65	405.24	362.02	398.67999999999995	404.20000000000005	401.76
423	21207.0	22154.0	296.56	306.70000000000005	422.94	338.14	343.23	363.66	277.76	331.06	299.18	340.96000000000004	317.16999999999996	355.5	326.77	377.58000000000004	302.36	368.52	299.77	342.12	290.62	357.03999999999996	285.86	358.08	379.9	267.61	388.17999999999995	276.49	324.76
424	4953.0	4096.0	296.56000000000006	453.39	387.16	334.68	315.1	556.72	432.38	379.39	406.3	383.06	408.29	305.41999999999996	356.34000000000003	368.88	408.15000000000003	408.69	350.91	378.70000000000005	359.94	369.61	253.4	326.20000000000005	391.63	389.18	336.98	355.94000000000005	301.0
425	6319.0	1796.0	441.94	467.62	457.70000000000005	481.32	513.83	502.26000000000005	423.58000000000004	527.08	344.97	375.1	412.68	706.06	471.76	587.6	571.4	444.84000000000003	487.13	502.88	497.84000000000003	523.3800000000001	552.08	444.78	536.1600000000001	643.9200000000001	456.68	604.0	500.4
426	9913.0	15913.0	484.58000000000004	461.1	504.53999999999996	596.0899999999999	457.9	533.6600000000001	496.46000000000004	510.32	500.56	499.49	464.18	638.2	619.06	520.12	442.64	492.58	545.55	467.98	409.71999999999997	642.26	577.96	503.56	517.96	556.6800000000001	538.91	561.7	555.95
427	11262.0	15078.0	343.03	406.28	359.94	456.78	232.86	364.28	359.31	320.06000000000006	350.26	310.03999999999996	302.8	400.95	400.5	396.42	373.84000000000003	280.1	372.5	317.14	237.88	282.11	372.05	451.12	281.73	390.83	344.28	357.28	383.27
428	8066.0	8447.0	278.9	310.22	276.82	285.43	269.9	274.8	306.12	288.24	286.09	278.91999999999996	278.88	266.53	307.66999999999996	288.86	272.33000000000004	278.98	277.94000000000005	296.48	293.61	300.28	258.43	277.28999999999996	275.08000000000004	276.75	304.47	270.18	278.31
429	5240.0	4104.0	286.1	338.73	349.93	328.68	354.25	301.44	343.98	322.65999999999997	346.76	285.88	368.67	409.38	276.1	361.16	312.53	364.0	389.86	385.18	301.58000000000004	260.84000000000003	263.2	348.56000000000006	299.24	306.88	269.3	359.68	343.08000000000004
430	3137.0	15689.0	364.40000000000003	390.73	424.46000000000004	381.14	393.62	402.98	340.81	421.79999999999995	404.47	411.40999999999997	368.2	320.9	294.78	417.03	334.5	280.91999999999996	398.48	345.65999999999997	397.55	449.6	404.67	359.48	427.73	431.52000000000004	405.22	394.52	416.58000000000004
431	364.0	10211.0	335.88	400.74	366.94000000000005	418.41	336.0	407.47	440.05999999999995	410.41999999999996	332.88	403.84000000000003	338.58000000000004	440.55	375.66	419.02	442.55	398.68	412.73	397.08000000000004	326.68	544.9499999999999	329.75	427.06000000000006	411.6	426.70000000000005	476.9	329.76	343.99
432	22038.0	10053.0	355.48	402.58000000000004	350.08000000000004	353.08	366.36	431.1	405.0	308.32	360.63	376.03000000000003	369.18	378.98	289.56	373.5	353.91999999999996	306.12	337.62	366.18	389.84000000000003	371.66	398.8	330.20000000000005	389.23	391.74	308.48	380.09000000000003	315.12
433	7801.0	8179.0	305.86	327.98	301.92	332.22	303.15999999999997	321.63	313.78	313.02	294.52	323.82	295.24	283.94000000000005	306.91999999999996	306.74	315.9	287.70000000000005	310.21000000000004	304.14	332.33000000000004	322.34000000000003	325.06000000000006	300.0	324.35	309.8	329.23	314.86	306.78
434	7483.0	2639.0	229.48	347.6	376.0	295.91999999999996	269.38	294.88	342.24	386.46000000000004	343.33000000000004	356.64	352.98	391.17	340.86999999999995	341.02	251.2	268.56	363.08000000000004	399.12	408.3	167.5	420.94	335.88	311.94	349.67999999999995	365.1	314.35	336.56000000000006
435	22705.0	3941.0	455.14	546.4100000000001	557.71	538.45	608.46	626.15	515.28	517.7	485.26000000000005	576.0799999999999	625.46	489.90000000000003	502.86	513.53	491.98	502.40000000000003	572.3	553.44	498.86	533.44	538.22	574.05	539.0	681.9000000000001	498.21000000000004	502.8	485.45000000000005
436	7740.0	7664.0	292.82	282.96	274.03999999999996	282.05	268.98	277.38	276.08000000000004	276.18	276.38	278.41999999999996	278.48	273.84000000000003	285.1	278.27	279.96	308.91	277.7	272.27	268.73	261.13	288.64	272.18	271.0	268.08000000000004	254.4	271.48	276.28
437	2734.0	14660.0	260.5	254.3	252.3	248.57999999999998	252.79	256.9	255.13	258.78999999999996	266.39	256.9	251.15	251.74	258.2	250.43	253.98000000000002	253.59000000000003	255.69	260.88	260.8	255.88	260.56000000000006	283.14000000000004	271.46000000000004	253.88	267.68	260.08000000000004	251.4
438	18587.0	11277.0	352.42	476.57000000000005	509.49	274.0	481.89	476.02	476.79999999999995	442.3	485.72	392.77	490.76	461.35	378.90000000000003	412.78000000000003	480.46000000000004	473.86	431.11	476.41	433.69000000000005	459.9	459.82	462.38	415.67999999999995	480.58	460.52	374.98	459.69
439	5663.0	11230.0	368.56000000000006	311.58000000000004	353.62	360.12	391.1	347.11	329.56	348.08000000000004	304.8	313.40999999999997	324.96000000000004	387.03000000000003	327.06000000000006	314.91	347.65	307.72	345.28999999999996	324.09000000000003	358.53999999999996	329.83	281.41999999999996	349.7	372.62	346.08000000000004	345.52	336.94	330.79999999999995
440	2276.0	2342.0	422.69	507.69	396.65	439.46	437.38	316.9	316.46000000000004	322.48	299.67999999999995	346.94	372.54	395.22	426.53000000000003	442.94	340.58000000000004	487.47999999999996	427.09000000000003	595.66	411.34000000000003	424.73	414.32	429.20000000000005	459.36	373.82	467.0	303.17999999999995	277.70000000000005
441	22215.0	9121.0	436.54	517.62	428.66	427.0	462.71000000000004	399.18	431.56000000000006	342.70000000000005	299.0	380.21	513.12	487.13	454.76	437.38	439.78	424.36	474.58	469.63	427.36	474.53999999999996	399.76	432.08000000000004	396.26	461.9	417.38	444.62	479.46000000000004
442	19540.0	940.0	411.0	363.34000000000003	362.04	369.39	369.97	348.5	362.78	368.48	399.66	405.3	376.54	383.02000000000004	399.08000000000004	386.34000000000003	345.41999999999996	380.08000000000004	356.58000000000004	387.1	360.0	326.48	357.3	361.16	388.51	393.22	353.66	398.17999999999995	407.9
443	9024.0	17267.0	392.88	455.8	511.3799999999999	701.44	388.53999999999996	443.76	483.96000000000004	565.04	534.85	428.46	371.58000000000004	444.79	515.4399999999999	532.5799999999999	436.66	401.58000000000004	558.4000000000001	520.9000000000001	442.08	502.7	408.32	442.12	373.38	586.8	472.66	413.5	451.95000000000005
444	7841.0	4798.0	392.15999999999997	413.86	446.15999999999997	505.38	459.8	388.74	416.35	459.14	394.74	437.38	431.5	420.20000000000005	389.03000000000003	461.05	427.88	391.08000000000004	405.53999999999996	476.18	473.4	355.88	439.20000000000005	474.03000000000003	400.24	470.38	359.98	436.71000000000004	435.94
445	8722.0	3243.0	281.03000000000003	283.55	288.4	279.70000000000005	286.4	290.68	274.4	279.3	282.46000000000004	295.6	282.08000000000004	285.98	270.78999999999996	287.96000000000004	275.0	272.6	283.6	282.87	274.55	278.43	281.18	289.48	279.6	278.14	279.06	281.18	282.73
446	4318.0	2845.0	239.48000000000002	360.28	327.14	337.71	397.13	472.58	490.88	411.77000000000004	416.86	413.1	485.06	549.9	371.88	330.16	362.20000000000005	493.34	417.40000000000003	330.8	266.48	462.09000000000003	302.44	428.65999999999997	565.14	433.06000000000006	457.78	459.40000000000003	410.54
447	7311.0	9394.0	436.22	488.42	376.22	395.20000000000005	467.56000000000006	439.1	423.28000000000003	467.15	466.74	394.21000000000004	421.0	446.24	282.51	432.84000000000003	454.1	360.77	442.61	369.55999999999995	434.97	439.61	447.09999999999997	432.3	382.53999999999996	401.68	377.9	497.3	450.06000000000006
448	577.0	14942.0	438.42	322.23	308.54999999999995	415.04	416.16999999999996	401.86	400.64	367.48	378.53000000000003	434.4	404.76000000000005	399.55	354.68	406.88	393.46	453.64	365.98	387.67	420.66999999999996	406.5	455.46000000000004	387.0	354.26	433.54	353.6	345.02	445.53
449	3834.0	8199.0	349.24	319.74	368.44	312.67	363.68	392.72	381.12	362.17999999999995	342.5	347.1	340.27000000000004	336.31000000000006	372.65999999999997	330.66	360.72	359.98	315.86	364.39	321.6	324.43	373.13	359.14	341.28	351.89000000000004	420.15999999999997	332.48	335.68
450	3739.0	7757.0	350.38	330.76	327.88	351.63	362.08000000000004	344.46000000000004	347.37	330.98	375.09000000000003	312.96000000000004	345.03000000000003	329.4	368.20000000000005	331.94	334.85	330.83000000000004	363.57	348.26	359.35	346.1	347.3	339.99	353.20000000000005	346.98	359.40000000000003	337.79	350.88
451	1927.0	14961.0	334.42999999999995	324.09	360.11	290.25	335.63	366.70000000000005	346.88	367.81	338.20000000000005	338.71000000000004	358.33000000000004	345.78	350.1	357.72	317.97	343.55	387.8	353.83000000000004	367.18	339.1	370.39000000000004	285.98	365.20000000000005	351.34000000000003	347.48	365.84	358.74
452	2851.0	15472.0	285.9	451.86	374.92999999999995	366.64	370.67999999999995	380.5	364.68	375.98	385.76	425.28999999999996	341.84000000000003	309.35	383.8	369.88	370.05	348.03000000000003	399.28	374.64	348.68	444.06000000000006	382.70000000000005	414.06000000000006	267.6	417.15999999999997	359.40000000000003	395.48	369.64
453	857.0	17024.0	520.73	534.35	551.28	513.86	540.6099999999999	516.0	574.96	506.4	559.6	508.98	558.86	512.24	470.36	552.05	526.1600000000001	534.36	528.82	560.78	510.22	573.95	577.8299999999999	550.6400000000001	562.8	479.1	536.48	546.9	549.79
454	2186.0	3280.0	377.18	399.76	539.64	499.98	371.6	449.84000000000003	464.92	522.46	486.38	535.51	435.58	432.03999999999996	485.16	474.72	479.27	438.09000000000003	509.0	552.0	435.06000000000006	413.70000000000005	511.98	465.94	413.28	513.08	392.22	368.71000000000004	508.47
455	8840.0	996.0	480.56	542.3	430.53999999999996	577.54	462.86	477.1	470.06000000000006	479.37	413.45	458.65999999999997	497.82	479.32	484.53999999999996	406.18	513.03	562.05	497.88	526.76	491.95000000000005	513.03	327.86	475.56000000000006	505.84	516.1600000000001	357.14	294.15999999999997	534.94
456	15875.0	12188.0	226.60000000000002	233.33	228.58	230.05	236.4	229.60000000000002	234.29	231.4	237.52	236.12	230.08	230.33	229.58	238.9	233.97	233.18	235.84	235.97000000000003	226.38	233.38	232.92000000000002	230.93	223.10000000000002	233.48000000000002	244.88	234.14	233.08
457	8052.0	19280.0	440.88	327.78	488.5	326.8	422.56000000000006	442.18	342.02	444.81000000000006	280.48	341.72	433.78999999999996	316.34000000000003	528.6600000000001	329.83000000000004	364.5	460.24	421.94	436.28000000000003	333.74	289.88	550.4200000000001	528.38	520.1600000000001	346.1	508.4	438.33000000000004	399.85
458	8702.0	2744.0	420.83	323.0	372.28	371.78000000000003	432.36	475.8	379.14000000000004	378.24	295.96000000000004	399.41	372.32	414.98	372.3	305.08000000000004	388.95	314.98	364.37	346.8	286.46000000000004	338.11	385.44	481.68	383.56000000000006	374.14	389.18	372.19	359.15000000000003
459	7987.0	13177.0	412.85	339.86	365.42	428.65999999999997	372.75	341.3	410.28000000000003	387.62	460.18	423.03999999999996	428.69000000000005	362.3	485.76	354.03999999999996	420.82	410.11	351.4	472.70000000000005	444.16	383.85	417.99	376.0	412.29	436.68	450.25	339.84000000000003	390.66
460	21800.0	2103.0	503.03	584.08	463.97999999999996	479.20000000000005	457.7099999999999	466.26	554.3	542.39	489.4	573.4200000000001	616.27	474.78	628.32	588.06	522.36	507.08000000000004	450.63	515.0	544.79	459.39	443.67	483.64	540.9000000000001	527.73	600.38	385.4	600.25
461	2912.0	3374.0	585.56	419.54	522.4000000000001	404.08000000000004	440.29	485.90000000000003	495.47	450.94999999999993	497.70000000000005	543.9000000000001	503.2	452.09000000000003	461.88	468.62	423.77	448.58	444.78	432.68000000000006	668.26	609.88	550.84	427.20000000000005	575.45	353.31	431.1	474.28	506.15999999999997
462	2216.0	7668.0	384.41	352.34000000000003	356.29	387.14	378.88	358.15999999999997	382.26	377.38	367.4	380.96	360.42	393.45000000000005	370.26	391.1	383.21999999999997	388.68	397.53999999999996	376.16	382.26	340.38	315.58000000000004	347.9	417.0	394.98	370.98	355.03999999999996	370.36
463	9324.0	1095.0	373.49	376.29999999999995	324.22	476.6	449.46000000000004	411.56000000000006	454.03999999999996	422.14	339.48	341.12	386.98	299.74	408.66	417.82	383.71000000000004	432.8	407.53	456.66999999999996	415.76	427.0	437.16	357.53999999999996	400.28	442.38	306.6	421.02	445.4
464	7498.0	6126.0	474.66	452.0	511.54	394.81999999999994	442.76	433.94	436.47	447.14	477.29	414.08	257.9	486.47	513.24	360.73	415.47	520.73	432.06	461.8	485.88	371.39	428.36	475.2	496.47	411.53999999999996	448.64	515.2	487.88
465	1571.0	6718.0	458.66	364.88	369.18	357.73	328.7	324.5	308.75	355.63	348.98	327.12	356.02	338.66	447.86	326.18	315.23	299.74	351.81	331.68	336.16	321.83	358.72999999999996	358.3	398.20000000000005	321.56000000000006	376.67999999999995	358.76	316.43
466	20623.0	11102.0	452.98	442.46000000000004	458.53	460.26	449.66	449.97	402.65	454.66	476.46	468.62	447.80999999999995	461.36	460.24	487.34000000000003	452.69	492.25	440.26	505.06000000000006	480.94	435.3	440.28000000000003	449.03000000000003	432.90000000000003	483.4	460.84000000000003	446.53	432.94
467	3060.0	19785.0	407.96000000000004	379.42	450.32	354.24	398.86	391.0	515.45	464.51	408.35	451.28	446.98	440.44	426.83000000000004	389.38	398.20000000000005	428.82	478.24	387.4	513.3	459.5	347.48	405.84	397.3	407.37	466.58000000000004	458.92	376.42999999999995
468	1586.0	1898.0	346.3	344.61	401.34000000000003	404.98	421.01	416.02	419.51	299.78	405.1	332.70000000000005	381.73	442.9	354.14000000000004	383.91999999999996	406.28	377.78	337.98	447.03	362.99	465.64	387.26	422.64	424.02	406.16	293.08000000000004	314.20000000000005	386.04999999999995
469	6951.0	8170.0	479.43000000000006	406.46000000000004	376.28	487.44	438.97	349.14	453.8	450.27000000000004	422.94000000000005	439.26	412.44	449.17999999999995	386.38	452.1	486.88	339.76	422.74	377.98	418.55	441.96000000000004	377.78000000000003	454.21000000000004	467.70000000000005	335.28	301.98	428.62	387.9
470	9176.0	11581.0	434.88	352.77000000000004	302.88	308.27	358.78	380.86	439.5	380.4	434.03	361.91999999999996	373.59	275.8	431.28	345.22	368.82	433.52000000000004	361.97	388.18	412.97	340.8	332.2	392.51	369.79999999999995	446.08000000000004	252.9	380.44	406.1
471	20836.0	8538.0	382.55	454.9	380.9	387.6	481.96000000000004	440.86	429.74	390.56	377.95000000000005	404.52000000000004	525.8	412.53999999999996	346.72	488.13000000000005	369.46000000000004	449.70000000000005	436.99	409.58000000000004	408.8	462.88	340.84000000000003	486.02000000000004	413.62	417.58000000000004	397.9	448.8	493.54
472	7063.0	8335.0	290.36	278.08000000000004	278.8	282.39	280.38	273.28000000000003	266.1	274.48	272.70000000000005	276.84000000000003	281.94	273.05999999999995	270.74	273.28	270.5	281.64	273.88	262.88	281.5	273.94000000000005	270.3	280.19	274.34000000000003	269.78	284.43	273.58000000000004	273.48
473	9796.0	291.0	560.0	584.78	289.78	456.18	523.4000000000001	455.98	578.47	296.06	516.5	455.46	690.86	287.6	491.13	484.86	450.76	406.8	427.88	290.0	506.6	592.0	305.8	361.88	489.20000000000005	437.32	347.6	591.2	561.8
474	21421.0	1365.0	464.70000000000005	419.9	417.20000000000005	432.6	453.70000000000005	508.3	443.86	440.70000000000005	468.66	473.34	449.78000000000003	464.06	482.74	528.2	477.9	434.95	446.97	436.17	529.27	490.3	467.59999999999997	479.1700000000001	437.05	473.9	523.4300000000001	432.02000000000004	471.7
475	22167.0	22558.0	211.5	244.54000000000002	252.98	235.18	235.7	238.18	227.08	227.5	231.66	242.87	265.34000000000003	250.65	268.8	255.48000000000002	243.08	250.26	264.59000000000003	248.68	275.74	222.48000000000002	259.54	263.58000000000004	233.76000000000002	260.06	270.76	267.2	226.48
476	1135.0	2176.0	217.4	237.10000000000002	270.18	230.64000000000001	260.78	265.88	251.85000000000002	307.91	268.97	222.88	231.25	227.38000000000002	239.78000000000003	223.89	315.03999999999996	241.83999999999997	245.18	251.14000000000001	230.22	294.4	223.74	278.97	216.7	297.93	226.10000000000002	276.53999999999996	233.86
477	18414.0	9380.0	511.42	524.0	487.32	477.97999999999996	463.14	522.22	521.2	508.56	496.38	509.63	535.7	508.58000000000004	515.25	531.88	466.1	470.46000000000004	526.55	478.43000000000006	513.2	523.76	496.98	519.76	521.0799999999999	369.74	502.44	511.46000000000004	519.26
478	5797.0	3601.0	315.28	314.84000000000003	454.0	402.33000000000004	453.96000000000004	426.49	317.58	425.14	459.48	493.70000000000005	468.32	533.38	381.1	357.61	454.20000000000005	436.48	458.88	495.54	374.14	451.88	442.3	387.58	393.62	417.98	355.56	428.68	443.36
479	5391.0	4440.0	441.06000000000006	438.48	474.06000000000006	422.16999999999996	444.25999999999993	456.29999999999995	391.52000000000004	478.26	436.88	485.28	439.3	337.64	385.61	578.1	431.74	283.18	463.97999999999996	407.59000000000003	282.14	511.2	418.52	387.08000000000004	560.1	460.3	300.6	542.9000000000001	425.63
480	20789.0	6985.0	545.49	532.48	570.98	594.75	547.28	488.2	447.3	578.37	446.08000000000004	559.4000000000001	597.6800000000001	642.63	645.22	553.3499999999999	508.28	591.7	583.14	576.64	460.6	573.11	542.25	585.2	526.39	533.86	481.58000000000004	562.75	532.6800000000001
481	22698.0	526.0	323.68	331.86	346.93	350.64	385.48	356.44000000000005	337.78	349.07	448.66	413.18	361.76	357.18	343.48	337.93	333.96000000000004	436.34	377.22	395.54	426.58	346.3	371.53999999999996	358.43	347.08000000000004	354.0	399.42	406.82000000000005	432.07
482	3497.0	21481.0	423.18000000000006	420.44000000000005	429.41999999999996	391.58	398.68	401.24	373.55	400.14	372.38	355.72	363.27000000000004	350.96000000000004	460.46999999999997	509.0	333.6	321.88	468.20000000000005	406.68	443.59000000000003	391.28	324.24	310.46000000000004	473.52000000000004	319.36	407.07000000000005	465.79	414.09000000000003
483	4288.0	1652.0	309.73	309.68	311.1	310.78	307.09000000000003	317.48	314.20000000000005	316.03000000000003	305.78	315.49	305.53	309.68	308.37	310.0	304.78	302.34000000000003	300.1	297.58000000000004	310.84000000000003	297.12	307.91999999999996	302.58000000000004	311.38	321.0	312.26	311.24	318.99
484	16846.0	18690.0	306.28	324.5	352.56000000000006	314.84000000000003	315.0	320.98	309.98	281.90999999999997	323.41999999999996	272.46000000000004	332.63	327.78	308.58000000000004	303.3	318.81000000000006	309.18	308.44000000000005	301.3	293.43	299.71000000000004	311.88	319.58000000000004	330.3	296.06000000000006	296.28	367.76	316.44
485	5513.0	391.0	640.72	434.55999999999995	540.97	550.5699999999999	532.6800000000001	462.9200000000001	590.1	391.07	294.1	393.64	484.02	406.23	531.72	416.65999999999997	571.0400000000001	519.1400000000001	446.12	282.5	541.86	374.74	327.74	642.82	528.0799999999999	498.08	636.96	506.58000000000004	357.6
486	4220.0	4673.0	421.36	590.76	480.14	554.0899999999999	468.8	467.20000000000005	484.76	456.08	522.24	436.69	540.72	390.94	481.20000000000005	475.96999999999997	467.18	447.58000000000004	476.70000000000005	483.38	299.18	496.40999999999997	364.72	471.14	458.57000000000005	501.69	294.38	510.8	498.65999999999997
487	10936.0	21823.0	323.56000000000006	297.98	370.28	288.31	304.39000000000004	229.26	330.78	331.46999999999997	228.8	317.1	361.66999999999996	339.94000000000005	327.78	294.09	324.66	306.04	315.14000000000004	243.66000000000003	351.61	332.86	325.07000000000005	253.5	256.92	302.6	275.54	436.29	242.0
488	6407.0	348.0	538.6	505.46000000000004	473.7	540.8499999999999	543.83	461.20000000000005	548.95	512.46	516.55	561.58	532.2	461.68	541.94	493.78000000000003	538.4599999999999	513.83	470.97	476.34000000000003	537.4399999999999	476.68	516.38	578.3	304.0	574.58	561.4300000000001	397.84000000000003	561.96
489	11177.0	20185.0	363.06000000000006	309.5	428.72	429.54	302.46	545.11	503.26	476.14	505.18	470.1	433.1	410.94	464.16	435.7	556.64	451.08000000000004	431.84000000000003	545.3	464.98	335.40999999999997	287.94	349.3	388.96000000000004	404.61	215.10000000000002	311.01	323.48
490	2669.0	2335.0	295.94	376.68	324.18	338.48	359.54	341.79	391.0	345.98	314.34	417.62	353.4	316.53999999999996	362.78	358.98	375.5	305.0	349.7	386.66	294.76	271.48	305.78	299.9	365.88	327.33000000000004	380.86	276.20000000000005	329.16
491	13833.0	22286.0	359.94	414.75	399.38	523.5799999999999	510.62	532.47	576.37	527.74	363.93	421.24	322.24	390.47	563.22	444.9	428.51	367.99	359.64	437.5799999999999	413.64	267.73	286.8	425.2	483.5	519.8199999999999	505.58	486.91	512.48
492	4955.0	21377.0	626.24	471.63000000000005	311.9	591.76	516.58	506.74	524.63	428.86	467.72	430.57	462.8	433.31	442.4	463.0	422.93	431.36	404.66	549.6800000000001	358.14	396.96000000000004	360.12	486.68	459.08000000000004	380.58000000000004	365.07	347.83	406.08000000000004
493	5902.0	8931.0	278.4	344.82	320.97	367.84000000000003	333.55	321.28	392.24	355.26	356.49	300.03000000000003	336.28999999999996	363.4	323.46000000000004	331.6	341.68	349.22	332.54	324.78	275.28000000000003	371.1	338.34000000000003	354.88	362.38	322.2	379.96999999999997	399.4	391.63
494	1146.0	18482.0	286.18	450.48	387.82	372.04999999999995	354.93	591.6	287.75	323.89	288.5	419.3	458.28	346.22	272.98	263.88	403.24	302.78	249.33	235.10000000000002	438.1	383.36	385.46000000000004	291.08	280.20000000000005	284.28	264.88	255.14	254.10000000000002
495	1651.0	2201.0	395.8	567.2	504.78000000000003	397.91999999999996	498.29	457.62	612.46	459.08000000000004	641.8	585.25	596.81	646.32	791.32	603.28	721.19	500.22	292.1	506.73	463.70000000000005	520.04	442.84000000000003	431.78	474.9	485.1400000000001	309.0	354.91999999999996	541.25
496	1409.0	21445.0	282.38	329.08000000000004	430.06000000000006	247.06	298.18	327.4	255.29000000000002	331.6	239.48000000000002	382.05999999999995	423.18	283.98	297.61	296.63	307.48	587.16	321.06000000000006	299.51	422.19999999999993	340.49	593.86	343.62	277.92	259.65999999999997	424.15999999999997	337.65999999999997	410.6
497	7709.0	2173.0	361.57	461.26	460.32000000000005	347.20000000000005	451.98	344.11	391.73	429.91999999999996	400.38	421.26	434.89	462.70000000000005	314.1	427.46000000000004	384.14	436.62	427.4	310.6	434.78999999999996	451.1	426.8	410.02	402.1	433.84000000000003	467.47	395.64	416.88000000000005
498	9047.0	9438.0	503.28000000000003	595.24	434.46000000000004	481.7	658.46	580.69	592.72	560.36	640.38	564.4200000000001	551.6600000000001	558.74	527.0	577.77	537.52	539.23	506.45	585.19	572.7	444.8	566.2	478.32000000000005	651.5	540.54	537.3299999999999	542.6700000000001	591.04
499	8263.0	761.0	438.46000000000004	422.28	497.86	473.06	458.42	488.68	411.86	477.82	336.28	470.96000000000004	421.67999999999995	515.0	512.46	444.22	467.45000000000005	399.49	465.22	483.20000000000005	438.59000000000003	463.36	500.18	419.75	359.63	513.78	534.47	435.96000000000004	449.08000000000004
500	4689.0	1919.0	500.9	461.94000000000005	519.9200000000001	484.14	513.98	549.54	443.6	509.88	360.48	462.96000000000004	493.67999999999995	505.95000000000005	445.68	461.75	522.36	441.03999999999996	486.89	283.78	446.28999999999996	446.20000000000005	533.26	469.77	495.94	498.03	603.22	436.38	481.10999999999996
501	1520.0	19122.0	230.34	229.86	230.4	223.0	223.69	229.34	226.5	229.2	228.25	226.8	228.10000000000002	228.2	227.3	228.48000000000002	226.60000000000002	231.69	228.73000000000002	229.85	225.08	226.0	230.05	228.60000000000002	229.79000000000002	224.05	226.3	227.89	225.99
502	2908.0	11954.0	627.7	461.88	518.98	459.26000000000005	447.91999999999996	459.95000000000005	465.32000000000005	460.24	434.39	390.0	422.54	432.3	498.1	481.94	437.0	455.64	439.70000000000005	415.74	478.55999999999995	536.51	413.02	469.88	466.04999999999995	370.59000000000003	546.87	459.28999999999996	421.24
503	6586.0	3461.0	483.54	391.68	466.06000000000006	398.46	380.98	391.43	348.08	510.90999999999997	493.79	413.23	333.44000000000005	451.23	378.66	431.48	498.49	460.83000000000004	405.8	372.69	471.6	465.54	445.94	330.86	468.58000000000004	480.98	461.12999999999994	478.88	395.4
504	5649.0	1869.0	461.06	496.76	441.7	465.06	440.54	438.89	476.9	492.52	513.33	433.68	380.68	477.4	274.1	438.90000000000003	498.90000000000003	503.74	452.67999999999995	466.18	283.58000000000004	331.9	558.5899999999999	437.38	342.78	471.26	475.12	451.74	511.40000000000003
505	8505.0	4259.0	528.3900000000001	537.98	533.32	450.49	458.45	500.12	353.70000000000005	521.06	519.86	526.6800000000001	502.88	493.48	490.94000000000005	436.78	450.15999999999997	348.86	546.48	521.44	458.02	564.6600000000001	487.88	484.1	526.32	490.65999999999997	567.4200000000001	433.48	559.98
506	5396.0	18776.0	245.60000000000002	243.7	238.7	243.3	247.78000000000003	244.84000000000003	248.10000000000002	244.58	243.33	246.76	244.38	240.24	253.08	249.5	250.23000000000002	248.09000000000003	248.34	239.94	247.7	240.0	245.09000000000003	243.74	243.08	227.93	248.5	246.60000000000002	249.3
507	4432.0	6473.0	461.48	423.6	416.44	435.21000000000004	416.70000000000005	426.83000000000004	427.77	431.12	393.8	422.16	482.38	431.53999999999996	385.39	418.23	422.08	413.26	403.9	376.38	441.58000000000004	309.28	383.52	471.4	402.28000000000003	415.26	547.46	435.24	385.41999999999996
508	2183.0	3705.0	433.66	444.03	440.29	417.38	416.14	391.18	427.64	423.26	408.78	417.48	506.64	340.76	386.88	424.70000000000005	442.74	408.94	397.8	406.12	459.84	400.36	452.69	449.12	341.1	421.48	461.0	328.39	394.96
509	2929.0	21694.0	282.20000000000005	367.11	325.74	373.6	371.86	407.1	409.24	356.96	383.0	310.56000000000006	363.44	398.84000000000003	382.55999999999995	314.03	304.6	303.89	354.94	400.9	424.18	398.82	336.61	455.24	344.78000000000003	423.98	379.91999999999996	405.86	381.83
510	3239.0	20081.0	451.4	487.75	488.32	538.64	463.02	394.98	441.29	408.98	438.86	448.38	468.27	444.52	592.64	464.6	422.65999999999997	457.78000000000003	503.78000000000003	462.77	408.53999999999996	490.48	442.35	438.5	415.9	443.28	471.8	529.78	388.19
511	3614.0	14832.0	528.76	494.96000000000004	518.9300000000001	248.18	600.9000000000001	407.09000000000003	368.1	509.4	350.9	512.4	395.36	496.88	320.02	456.20000000000005	371.5	412.6	405.6	532.04	292.1	465.90999999999997	418.66	474.9	520.78	511.58000000000004	347.53999999999996	444.11	523.41
512	3018.0	738.0	460.70000000000005	515.08	496.81	491.56	406.38	423.69	591.7900000000001	429.88	367.9	504.57	515.74	448.1	531.8399999999999	388.78	452.24	433.38	532.6	312.08000000000004	472.65999999999997	497.47	495.74	531.2	495.03999999999996	340.96	496.02	325.78	279.78
513	4064.0	6781.0	406.1	438.28999999999996	457.48	371.64	390.0	371.70000000000005	363.13	398.09000000000003	413.62	316.45000000000005	477.15999999999997	354.28	382.01	342.48	378.98	401.20000000000005	434.8	325.6	295.84000000000003	420.9200000000001	342.3	357.55999999999995	361.65999999999997	426.57	465.08000000000004	459.8	347.34000000000003
514	2107.0	5285.0	432.19	264.56	296.17999999999995	318.33000000000004	351.4	312.8	336.46000000000004	338.0	308.15999999999997	276.25	346.19	336.46000000000004	314.76	331.73	377.52	360.88	371.77	355.88	278.34000000000003	316.88	305.23	318.32	304.3	302.5	291.96999999999997	358.4	314.4
515	22784.0	190.0	837.04	1729.79	783.52	1130.8399999999997	777.24	1071.2800000000002	912.0	845.4000000000001	1565.16	1761.0	1573.6399999999999	1124.9	2970.9	1290.76	957.72	3407.34	1853.1000000000001	2449.86	1284.78	479.48	817.17	4807.08	990.2	507.68	3520.9800000000005	1329.0500000000002	764.5600000000001
516	9527.0	9068.0	419.64	426.20000000000005	383.03	396.03000000000003	375.26000000000005	391.38	410.88	348.0	403.97	352.66	407.63	366.3	358.4	420.20000000000005	404.42	417.65999999999997	324.75	364.28	382.86	307.22	401.22	382.92999999999995	391.29	350.37	375.64	429.7	365.48
517	4319.0	16054.0	404.04	505.68	442.86	306.03999999999996	481.42	454.6	433.78	511.78000000000003	309.70000000000005	405.01	346.8	498.03999999999996	323.86	488.68	342.3	481.58	474.6	491.14000000000004	530.52	427.57	452.98	451.64	409.68	550.5999999999999	428.07	377.88	525.27
518	5869.0	20379.0	424.93	488.44	401.86	421.69000000000005	403.38	440.88	407.58	410.16	362.39	393.14	380.33	309.8	400.53999999999996	404.78000000000003	411.92	397.56000000000006	427.20000000000005	356.56000000000006	359.46000000000004	394.68	394.73	411.81	413.76	433.36	390.1	391.38	395.64
519	380.0	1647.0	385.74	382.1	389.26	367.5	381.18	401.86	383.38	454.96	466.39	320.5	312.48	438.36	323.8	457.66	448.14	463.18	429.96000000000004	415.9	319.9	342.0	362.38	411.37	343.98	342.89	434.3	522.08	336.82
520	4065.0	3817.0	481.68	284.08000000000004	420.41999999999996	308.98	383.59000000000003	426.65999999999997	439.83000000000004	423.12	423.88	466.66	428.58000000000004	568.48	357.87	496.06000000000006	408.0	459.67	285.3	301.98	354.62	294.4	287.1	502.43000000000006	312.38	390.3	291.56	299.64	371.02000000000004
521	22930.0	5844.0	333.74	411.86	406.32	438.21000000000004	426.64	526.6800000000001	317.20000000000005	399.1	437.34000000000003	337.03999999999996	318.78	491.68000000000006	278.7	309.08000000000004	399.04999999999995	283.12	403.9	533.6	437.78	386.68	401.95000000000005	348.74	356.74	470.0	355.06000000000006	357.96000000000004	393.71
522	7156.0	7291.0	274.44	370.56000000000006	285.35	282.56	278.68	278.38	275.58000000000004	274.20000000000005	287.89	272.53999999999996	271.76	281.84000000000003	274.59000000000003	328.45	283.18	380.53999999999996	279.05	303.18	285.39	275.0	274.34000000000003	295.98	298.16	275.78	278.78	281.0	284.69
523	4539.0	3082.0	351.14	490.81999999999994	273.38	481.41999999999996	588.7	545.72	419.88	454.15	496.97999999999996	265.78000000000003	501.83000000000004	337.06000000000006	286.1	458.44	307.58000000000004	479.47	473.36	311.1	325.41999999999996	423.32	364.58000000000004	510.94000000000005	419.6	445.70000000000005	296.78	415.38	438.82
524	3748.0	7424.0	320.8	335.83	328.0	331.43	323.17	323.44000000000005	326.46000000000004	326.48	320.9	327.6	330.0	314.88	324.4	324.13	324.85	320.44	326.84000000000003	319.5	334.48	316.98	318.39	325.5	324.48	338.75	324.43	326.8	330.23
525	7802.0	21585.0	455.48	380.76	424.38	393.88	378.28	435.78	323.11	399.0	399.74	400.43000000000006	394.38	479.1700000000001	372.78	357.73	311.02	307.88	408.72	414.08000000000004	422.33000000000004	423.2	300.29	414.74	354.48	499.5	340.9	372.84000000000003	415.28
526	10427.0	1103.0	450.62	346.27	322.07	491.52	418.53999999999996	491.98	429.99	446.6	378.20000000000005	394.4	443.14	317.26	515.24	433.94000000000005	406.43	428.8	518.25	458.3	441.08000000000004	525.52	511.17	401.48	497.5	514.5699999999999	286.4	528.1700000000001	367.15
527	21986.0	10804.0	456.62	364.03999999999996	460.44000000000005	457.63	459.07	454.07	502.58	401.38	393.17	388.84000000000003	409.4	429.18	350.3	409.91999999999996	401.69	367.38	401.45	373.76	412.75	413.16	388.62	527.73	400.42	365.21000000000004	402.28000000000003	376.72	436.23
528	2004.0	20287.0	530.14	499.96	287.78	386.35	448.74	493.78000000000003	393.09	375.20000000000005	387.16	439.64	397.52	357.05999999999995	408.8	440.14	426.72	448.47	444.11	389.58000000000004	363.88	459.86	426.59000000000003	420.59	496.28000000000003	373.94	352.32	339.8	381.36
529	1891.0	18088.0	241.96	232.38	323.59000000000003	437.28999999999996	429.28	407.88	321.08000000000004	408.53999999999996	300.20000000000005	350.98	308.79	315.94	399.65999999999997	282.74	356.09000000000003	416.92	368.74	361.95	398.4	347.48	346.14	332.1	404.58000000000004	353.57000000000005	317.38	368.94	336.0
530	2906.0	13433.0	383.98	477.15	459.68	390.86	432.19	416.8	447.08	396.08000000000004	376.96000000000004	371.38	332.4	412.46000000000004	557.28	481.03	340.5	353.82	366.69	376.0	489.72	350.08000000000004	646.6999999999999	517.48	363.03999999999996	305.38	586.94	379.78000000000003	451.11
531	5698.0	10366.0	389.84000000000003	327.41999999999996	322.67	373.5	280.28	377.38	338.78999999999996	402.19000000000005	292.70000000000005	374.22	333.44	425.86	258.28000000000003	288.20000000000005	322.54	319.66	345.98	394.75	435.44	373.44	373.18	367.14	352.70000000000005	385.29	371.08000000000004	367.26	317.12
532	6413.0	14424.0	315.94	263.49	312.5	245.48000000000002	260.14	289.8	281.58000000000004	286.02	294.3	267.67999999999995	265.72	277.12	255.88	292.77	253.78000000000003	264.03000000000003	300.20000000000005	286.70000000000005	244.17000000000002	275.6	279.34	420.88	355.96	317.17	245.19	283.72	268.78
533	6080.0	3294.0	486.15	401.06	474.82	546.46	396.3	397.76	503.53999999999996	473.01	530.65	369.58000000000004	549.78	446.09	420.64	440.57000000000005	424.9	533.91	507.0	494.65999999999997	290.28	482.0	430.74	512.2	443.31	416.18	418.78999999999996	512.63	467.03999999999996
534	6866.0	2493.0	305.82000000000005	299.48	305.1	309.08000000000004	306.62	291.06	298.08000000000004	290.88	286.58000000000004	295.6	289.88	306.91999999999996	304.24	292.3	283.65999999999997	295.38	310.74	295.66999999999996	288.14	302.6	294.15999999999997	296.15999999999997	385.55	285.68	292.08000000000004	317.46000000000004	316.26
535	2508.0	2468.0	280.58000000000004	325.58000000000004	318.5	282.48	319.16	311.46000000000004	259.18	314.02	282.06000000000006	274.88	258.99	236.48000000000002	322.52	306.34000000000003	366.15	272.0	274.48	280.48	227.18	279.68	366.68	293.28000000000003	307.14	245.2	292.78	248.28000000000003	322.03999999999996
536	1579.0	22038.0	248.23000000000002	254.2	245.89	243.04000000000002	245.9	249.58	245.06	252.66	260.8	245.5	245.74	245.88	247.10000000000002	249.07	246.98000000000002	246.34	247.04	247.3	238.78000000000003	246.54000000000002	247.64	248.08	241.5	244.8	249.08	249.94	244.66
537	22842.0	8280.0	492.02	509.88	522.0	461.36	519.48	534.6199999999999	457.96	442.04	564.01	393.28000000000003	541.56	536.48	301.20000000000005	308.5	523.4000000000001	318.0	524.1800000000001	530.2	462.97999999999996	425.20000000000005	527.6600000000001	493.24	500.88	399.64	543.86	497.38	582.76
538	9591.0	18506.0	378.14000000000004	595.8399999999999	484.22	600.48	449.22	517.13	631.4100000000001	497.33000000000004	453.24	542.74	594.28	586.8399999999999	599.52	484.28000000000003	543.36	699.6200000000001	495.88	543.8	527.54	525.3499999999999	648.6	505.31000000000006	589.65	639.1600000000001	523.1800000000001	602.95	521.32
539	10052.0	8605.0	573.8399999999999	564.6	498.56	552.28	476.17	504.0	474.4	506.44	501.26	484.56000000000006	544.52	468.48	445.28	467.8	509.06	527.44	528.8	522.9000000000001	456.02	467.94	538.1	511.44	405.56	528.0	478.78	488.82	474.48
540	1342.0	18453.0	238.78000000000003	259.20000000000005	260.69000000000005	274.24	280.28	320.70000000000005	256.28	270.65999999999997	255.3	246.16	240.58	287.70000000000005	264.1	298.99	247.68	259.88	279.33	258.39	235.75	243.3	247.8	226.60000000000002	252.10000000000002	247.38	269.1	249.55	247.9
541	5058.0	19992.0	395.34000000000003	499.79	532.71	419.68	439.67	576.56	357.8	542.74	594.63	369.38	430.84000000000003	395.58000000000004	497.64	470.95	504.76	476.14	372.4	580.3199999999999	305.53999999999996	515.71	586.62	470.48	539.78	392.46000000000004	517.17	413.26	493.18
542	20994.0	10424.0	410.8	539.47	522.36	489.73	404.41999999999996	461.72	488.83000000000004	462.04	560.74	566.95	588.4300000000001	492.66	562.4	346.14	610.46	505.17	506.86	527.4000000000001	607.6	513.73	518.8399999999999	565.14	494.2	459.74	515.3900000000001	509.82	501.28000000000003
543	7660.0	12641.0	347.96	303.97	439.58000000000004	341.86	315.24	342.24	413.28999999999996	321.58000000000004	258.14	361.95000000000005	278.91999999999996	308.36	340.9	314.68	364.86	365.31	323.56	331.55	220.2	367.78	328.44	285.1	257.68	270.03999999999996	327.20000000000005	404.37	350.46000000000004
544	7204.0	8070.0	283.33000000000004	276.79	280.96000000000004	286.37	283.76	279.46000000000004	294.70000000000005	286.44000000000005	293.38	283.54	287.86	293.23	307.34000000000003	305.38	303.0	290.81	309.78	265.98	287.5	283.31	288.39	294.74	283.98	277.96000000000004	287.99	283.38	302.48
545	21071.0	13131.0	372.1	378.01	375.36	428.97	317.86	422.34000000000003	336.36	321.74	393.68	390.38	370.19	389.02	432.64	338.11	409.08	353.17999999999995	385.22	397.92	461.09	354.38	353.46000000000004	436.74	393.86	428.13	402.18	313.08	356.56000000000006
546	5887.0	12717.0	265.68	383.96000000000004	279.18	346.17999999999995	391.66	360.77	351.0	339.05	386.6	299.87	341.71000000000004	344.71000000000004	354.52	463.56000000000006	378.62	338.03	324.7	339.2	352.29999999999995	273.68	382.05999999999995	372.53000000000003	394.84000000000003	303.59000000000003	265.15999999999997	381.43	288.48
547	6779.0	5792.0	466.6	512.98	478.43	444.03000000000003	515.71	490.9	450.49	481.62	513.15	499.74	463.47	400.96000000000004	565.4	406.98	490.17	518.06	483.55	332.38	554.5699999999999	504.89000000000004	540.98	512.4100000000001	456.49	465.15999999999997	289.9	491.93000000000006	469.44
548	1537.0	15162.0	268.6	221.0	268.56	335.06	320.1	338.38	262.22	338.24	326.48	316.15999999999997	258.22	280.5	352.78999999999996	304.88	416.33	291.28	305.88	375.07	266.98	280.97	362.12	254.84	296.82	367.03999999999996	317.16	356.78000000000003	321.48
549	287.0	13436.0	494.71000000000004	439.38	424.34000000000003	133.62	365.68	422.5	433.0	451.20000000000005	551.16	426.82000000000005	476.43	428.8	473.48	397.81	413.95	406.53999999999996	428.8	416.64	469.82000000000005	412.68	390.78	479.98	0.0	453.64	330.28	431.38	474.29
550	6202.0	15901.0	354.08	374.74	310.06	464.65000000000003	298.46000000000004	358.1	480.28000000000003	348.68000000000006	459.82	362.32	320.98	453.04	427.3	426.88	422.86	294.64	379.98	353.87	305.20000000000005	342.61	341.46000000000004	300.78999999999996	331.70000000000005	475.68	252.4	353.74	378.56
551	1237.0	962.0	444.74	470.56000000000006	397.86	432.56000000000006	458.82	447.27	506.63	493.14	453.38	443.98	489.08	458.1	477.01	507.38	453.05	490.6	468.34000000000003	486.68	484.36	298.68	419.68	441.94	476.43	439.36	305.70000000000005	532.3	392.14
552	6171.0	7854.0	267.58000000000004	267.53000000000003	251.60000000000002	265.75	269.9	265.58000000000004	265.76	259.64	263.38	272.95	264.55	262.6	273.98	261.1	261.45000000000005	255.48000000000002	265.94000000000005	252.9	246.28000000000003	255.73000000000002	255.68	256.9	268.35	257.3	259.2	266.64	260.24
553	8785.0	8989.0	325.78999999999996	287.68	337.86	299.9	311.53	318.56	297.61	329.84000000000003	320.01	334.20000000000005	367.31	292.36	257.08000000000004	254.7	365.91	314.39	349.62	396.34000000000003	312.84000000000003	361.5	397.09000000000003	326.14	333.9	297.58000000000004	314.36	315.09	311.26
554	574.0	2226.0	441.74	441.16	504.49	413.8	447.46000000000004	574.88	349.38	383.62	404.03999999999996	541.1	469.69000000000005	549.1	512.6	636.3299999999999	629.22	558.1600000000001	525.4200000000001	413.88	488.2399999999999	713.38	614.0400000000001	464.3	416.26	536.02	485.46	347.02	363.63
555	17622.0	22796.0	317.05999999999995	422.78	401.26	505.94000000000005	322.06	386.66	609.0500000000001	440.06000000000006	391.35	404.09000000000003	407.32	403.24	387.13	396.29	369.35	435.68	396.36	397.91999999999996	380.0	347.07	512.76	413.32	371.32000000000005	391.54	345.70000000000005	397.5	392.9
556	6723.0	21744.0	289.68	370.4	388.03999999999996	338.03	400.77	340.08000000000004	401.48	377.65999999999997	388.44000000000005	379.53999999999996	368.3	353.48	284.64	408.67	377.1	400.67999999999995	351.57	365.7	342.02000000000004	347.12	379.34000000000003	415.64	313.08000000000004	335.69000000000005	358.22	362.20000000000005	387.70000000000005
557	16948.0	10313.0	537.38	552.02	529.0	499.41999999999996	509.32	484.94	547.1	513.24	516.5899999999999	525.84	517.1800000000001	522.7	468.98	535.08	460.56000000000006	483.4	500.24	518.9	465.66	515.98	487.53000000000003	517.86	525.4000000000001	494.44000000000005	392.8399999999999	506.92	490.6
558	19041.0	12206.0	318.72	429.6	449.5	445.39	419.48	342.64	418.72	423.01	386.97	467.79999999999995	415.71000000000004	496.81	413.71000000000004	422.52	396.08000000000004	477.25999999999993	435.94	480.53999999999996	499.90999999999997	432.66	472.0	438.81000000000006	360.78	424.75	381.26	428.79999999999995	431.4
559	6634.0	2138.0	303.9	318.96000000000004	323.08000000000004	322.15	321.8	323.89	317.04999999999995	325.48	328.38	317.86	304.9	307.48	335.65000000000003	318.9	331.38	333.34	333.68999999999994	342.36	341.84000000000003	309.69	311.66	327.33000000000004	356.26	337.0	339.25	312.55	326.0
560	1159.0	20514.0	367.20000000000005	327.98	365.08000000000004	378.75	330.6	342.26	371.71	378.18	378.54	356.18	389.53999999999996	365.36	343.03999999999996	363.46000000000004	379.88	375.57000000000005	392.84000000000003	378.28	367.02	396.23	348.20000000000005	374.76	367.86	376.4	389.51	359.34000000000003	366.84000000000003
561	2652.0	14841.0	366.28	318.28	367.3	352.38	348.71	325.1	402.95000000000005	333.88	295.8	365.4	338.0	345.46000000000004	349.83000000000004	327.99	358.54	367.53	324.59000000000003	354.58	350.88	320.83	317.71	373.39000000000004	316.38	368.22	401.34000000000003	277.26	358.76
562	20008.0	9121.0	288.41999999999996	323.46000000000004	295.96000000000004	305.34000000000003	306.11	292.58000000000004	291.99	297.3	296.46000000000004	287.20000000000005	288.76	291.62	294.58000000000004	285.38	293.16	314.96000000000004	323.92	281.20000000000005	285.52	296.64	301.20000000000005	295.0	304.96000000000004	301.8	299.07	287.96000000000004	309.89
563	19681.0	11113.0	343.5	366.38	398.3	383.67	412.21000000000004	387.84000000000003	419.32	372.20000000000005	392.91999999999996	415.52	424.1	343.96000000000004	313.44	391.20000000000005	385.11	370.61	437.77	409.92	339.87	424.31999999999994	380.46000000000004	389.02	402.26	356.5	379.38	447.05	364.27
564	16559.0	15636.0	469.48	452.62	513.5600000000001	490.78000000000003	361.18	427.72	532.94	520.75	480.5	483.32	490.19000000000005	475.24	580.1600000000001	416.22	602.69	483.98	411.78000000000003	485.62	487.62	667.34	583.9000000000001	526.3199999999999	467.16	476.56000000000006	462.6599999999999	519.72	495.11999999999995
565	9300.0	2660.0	300.28	313.58000000000004	303.69000000000005	303.78999999999996	295.9	298.58000000000004	295.15999999999997	293.19000000000005	299.86	299.48	293.63	295.8	298.70000000000005	291.02	301.90000000000003	308.04	298.49	305.34000000000003	293.39	296.5	296.18	296.94	300.68	313.98	301.12	305.20000000000005	300.46000000000004
566	4137.0	1996.0	584.74	425.34000000000003	460.24	387.15	500.31	342.88	479.77	480.24	554.5799999999999	476.5	518.3299999999999	502.34000000000003	365.16999999999996	504.98	492.02	473.75	362.35	432.26	382.68	372.8	436.46000000000004	354.38	440.03	553.36	315.98	549.1899999999999	339.3
567	20148.0	8495.0	392.84000000000003	459.55	505.96	486.36	372.07000000000005	416.93	495.40000000000003	414.08	457.4	440.62	454.04	445.15000000000003	462.6	392.86	454.68	490.06000000000006	461.70000000000005	454.20000000000005	317.56	476.03999999999996	444.48	410.1	417.66	451.86	465.06000000000006	373.34000000000003	453.94
568	4857.0	2799.0	285.44000000000005	287.78	271.7	279.78	267.32	270.52	283.28	266.3	285.78	238.06	288.06	293.8	256.71999999999997	276.08000000000004	295.70000000000005	293.88	299.28000000000003	309.05	333.71000000000004	330.06000000000006	282.78	275.15999999999997	300.06	242.82	288.28999999999996	309.57	250.84
569	2912.0	7630.0	378.18	339.43	375.78	366.4	408.70000000000005	377.92	352.93	353.08000000000004	329.36	352.11	321.53999999999996	308.58000000000004	409.57000000000005	385.44	370.86	334.20000000000005	355.0	402.07	339.86	342.49	331.59	345.02000000000004	321.52	377.46000000000004	312.36	344.9	339.28
570	11640.0	14851.0	206.28000000000003	213.73000000000002	218.49	213.78000000000003	209.63	208.88	211.78	207.18	213.85	209.69000000000003	209.39000000000001	215.19	214.31	207.65	204.24	210.74	216.56	211.66	205.94	212.44	210.13	209.65	219.48000000000002	207.69	211.6	218.62	202.38
571	18031.0	12180.0	391.15	531.34	526.58	477.8	448.59000000000003	497.62	479.16	392.51	478.9	445.08000000000004	422.28	432.14	418.53	481.6	573.08	455.38	507.48	572.26	434.82000000000005	438.48	582.86	459.25	530.79	557.72	245.08	467.0	531.04
572	1917.0	15167.0	252.66	404.74	330.46000000000004	424.62	397.38	458.44	384.58000000000004	388.36	405.1	360.78	354.58000000000004	362.3	388.73	386.86	379.67999999999995	317.70000000000005	298.48	402.28	302.68	347.66	399.48	397.48	431.20000000000005	369.76	307.73	338.76	311.6
573	9034.0	8811.0	403.92	334.68	331.8	311.72	405.91999999999996	395.03	321.26	360.22	305.22	342.17	410.46999999999997	255.0	321.85	328.98	369.57	344.33000000000004	353.86	350.66	385.46000000000004	328.0	326.98	334.18	348.93	354.15	367.58000000000004	309.28	298.40000000000003
574	21998.0	11562.0	260.58000000000004	277.74	277.83000000000004	263.84	257.74	261.58000000000004	262.5	258.65	267.2	264.06	264.06	260.53000000000003	256.22	269.9	247.60000000000002	256.6	270.68	266.08000000000004	265.43	271.68	288.34000000000003	259.48	273.1	268.48	261.35	279.46	278.23
575	19436.0	21156.0	362.94	365.5799999999999	300.34000000000003	340.9	282.88	413.98	389.48	392.6	392.68	320.25	411.09000000000003	345.20000000000005	349.0	343.43	381.9	321.83	364.44	366.5	302.9	307.48	335.84	490.38	290.05999999999995	314.9	282.96000000000004	351.41	331.07000000000005
576	5775.0	15764.0	241.8	232.62	237.28000000000003	236.08	238.58	237.4	239.34	240.28	239.3	239.68	237.43	237.82000000000002	248.2	240.0	237.16	235.65	240.63	240.3	239.34	233.05	234.7	234.9	239.23	242.35	245.69	239.28	233.58
577	7466.0	8548.0	297.68	295.25	281.14	281.13	298.93	286.62	277.05	283.5	281.19000000000005	256.96000000000004	271.33	279.18	277.26	287.96000000000004	292.93	290.82	302.18	267.73	297.07	302.4	298.78	266.24	284.59000000000003	300.73	257.61	268.19000000000005	288.4
578	2971.0	2481.0	517.64	392.84000000000003	527.87	498.94	364.18	605.86	491.71999999999997	287.0	298.31	469.7199999999999	252.48000000000002	425.24	504.62	440.75	388.84000000000003	455.6	360.94	281.8	347.20000000000005	395.72	271.84000000000003	462.38	269.98	585.94	479.78000000000003	294.48	412.08000000000004
579	4132.0	12510.0	370.4	330.98	377.26	343.82	370.6	323.09	389.6	352.03999999999996	304.18	332.52	298.11	339.47	390.78	304.78	381.22	333.12	350.51	326.48	288.96000000000004	373.08000000000004	348.76	349.78	333.06000000000006	335.68	365.1	354.46	387.34000000000003
580	22752.0	22447.0	209.7	256.65	213.08	240.76	250.60000000000002	287.08000000000004	192.0	208.43	215.88	210.4	220.10000000000002	244.08	207.98000000000002	231.54000000000002	245.9	191.88	224.9	224.41	207.88	221.39000000000001	195.79000000000002	205.66	223.44000000000003	231.64	211.86	214.48000000000002	221.01
581	4991.0	2406.0	388.14	428.55	403.18	289.73	401.41999999999996	397.76	305.68	315.79	394.20000000000005	500.98	420.02	459.93	325.45000000000005	369.8	404.15999999999997	365.14	396.55	290.0	424.3	342.92	389.98	376.84000000000003	356.98	340.27000000000004	438.68	404.94	395.24
582	7007.0	7578.0	315.38	389.6	293.24	325.65999999999997	314.18	334.94	350.75	371.8	340.20000000000005	349.28000000000003	339.51	392.9	252.2	331.9	326.06000000000006	371.84000000000003	348.62	274.38	241.10000000000002	329.43	239.95999999999998	335.39	335.38	372.22	410.96999999999997	334.84000000000003	317.78
583	1174.0	4030.0	317.73	332.70000000000005	312.79	312.70000000000005	315.18	331.48	310.74	320.97	325.58000000000004	318.0	331.1	339.72	313.9	334.06	309.34000000000003	305.33	291.63	301.85	305.68	330.74	295.48	304.3	307.58000000000004	319.38	323.20000000000005	321.4	319.15
584	3020.0	17366.0	385.47	452.42999999999995	438.08000000000004	399.46000000000004	433.5	406.67	392.96000000000004	400.67	420.53999999999996	406.6	353.98	420.12	429.64	443.56000000000006	456.06000000000006	448.33000000000004	390.92999999999995	411.3	401.44	429.02	421.59000000000003	455.28999999999996	428.98	402.29	485.5	364.76	419.11
585	6389.0	2425.0	279.9	271.1	282.70000000000005	272.78	287.7	281.19	269.17	286.28	284.18	265.08000000000004	281.74	274.2	265.18	273.87	283.88	305.19	284.58000000000004	273.48	268.12	271.3	290.83000000000004	275.4	277.64	287.58	305.78	277.45	280.78
586	21283.0	3237.0	567.55	500.0	492.14	487.71999999999997	531.56	526.33	458.41	529.73	489.78000000000003	472.8	517.54	462.57	611.24	440.98	567.1800000000001	479.1	554.94	546.31	528.5	510.56	519.8199999999999	522.38	594.4200000000001	578.96	508.92	491.84000000000003	454.58000000000004
587	9869.0	21466.0	364.41999999999996	374.3	417.94	404.04	368.9	421.18	436.97	421.33000000000004	405.78	403.8	396.06	462.86	404.88	384.52	409.5	399.18000000000006	395.84000000000003	460.38	478.68	402.53999999999996	237.2	458.26	408.64	389.55	343.74	346.79999999999995	261.98
588	7796.0	7860.0	315.3	300.58000000000004	326.4	350.08000000000004	329.37	304.72	304.86	326.63	302.9	299.6	299.13	322.08000000000004	307.0	346.36	305.82	317.03	294.15999999999997	356.94	330.86	241.9	381.20000000000005	285.55	297.46000000000004	337.3	312.14	324.34000000000003	310.64
589	4693.0	3609.0	253.9	258.68	310.27	324.67	261.13	344.32	256.03	349.42	348.12	335.15999999999997	387.31	329.48	336.26	292.93	304.96	350.34000000000003	314.17	327.36	315.14	432.36	368.62	344.32	312.95	365.03000000000003	261.08000000000004	337.13	310.47
590	12379.0	22679.0	383.6	370.06	491.6	444.70000000000005	420.33	417.61	432.82	361.1	487.53999999999996	465.31	408.94	476.18	455.76	449.11	421.98	441.65000000000003	415.4	416.1	309.18	523.28	378.45	380.21000000000004	395.28	430.21	348.41999999999996	365.18	359.88
591	12281.0	11668.0	336.21000000000004	338.82	362.8	338.83	360.84000000000003	300.31	285.9	304.46	315.74	339.48	337.72	321.88	297.83	308.11	353.62	314.06	359.86	362.42	283.38	367.4	357.08000000000004	318.93	370.58	298.04	302.20000000000005	298.26	314.03
592	224.0	8483.0	297.68	310.96000000000004	308.33000000000004	283.5	306.78	304.85	301.72	299.09000000000003	300.87	315.3	315.32000000000005	308.58000000000004	298.44	311.83000000000004	307.5	296.48	312.0	283.57000000000005	299.4	323.74	314.9	304.09000000000003	305.64	316.28	300.06	298.48	298.15999999999997
593	20509.0	10929.0	437.31	382.68	408.38	350.08000000000004	364.69000000000005	292.72	439.64	381.18	360.67	383.89	386.56000000000006	397.31000000000006	381.0	347.68	374.48	381.39	378.45	355.26	407.68	390.86	377.91999999999996	414.75	412.44	335.0	382.1	385.98	320.68
594	1424.0	13604.0	392.08000000000004	385.73	420.58	479.76	486.75	471.3	470.16	464.75	485.88	459.5	431.11	385.14	316.03999999999996	497.38	347.0	433.5	486.53	398.88	423.14	408.39	484.66	457.44	443.02	433.34000000000003	476.15	436.61	431.38
595	1758.0	628.0	544.4599999999998	563.42	493.56000000000006	487.32	560.74	534.8199999999999	532.5	504.0	578.5	414.02000000000004	654.27	503.08000000000004	513.23	614.1600000000001	486.73	535.98	581.1800000000001	558.76	818.8	445.43	641.96	488.94	563.5	586.3399999999999	680.72	558.05	575.07
596	6527.0	1923.0	317.72	301.3	312.19000000000005	311.36	316.53	312.12	312.08000000000004	316.07000000000005	304.56	312.65999999999997	312.05	310.9	309.39	316.49	312.0	314.73	312.15999999999997	314.1	317.6	317.49	304.49	315.94000000000005	312.95000000000005	308.65999999999997	305.1	302.3	314.98
597	8411.0	10538.0	442.28000000000003	318.23	350.98	339.9	347.91999999999996	344.98	404.8	348.28	371.26000000000005	343.35	386.08000000000004	414.08000000000004	473.88	352.68	408.44	297.93	330.37	370.28	374.65999999999997	356.6	390.39	357.6	304.85	305.76	309.78	355.81	326.32
598	2781.0	8377.0	368.27	343.77	365.36	351.53	330.27	345.96000000000004	356.9	355.8	346.15	349.48	347.82	358.40000000000003	309.4	353.92	331.8	388.05999999999995	332.38	364.55	327.58000000000004	319.08000000000004	351.08000000000004	324.35999999999996	368.64	330.85	341.49	344.26	342.88
599	21638.0	5887.0	358.51	457.74	452.14	401.05999999999995	360.22	508.46000000000004	476.78000000000003	512.94	511.38	476.55	478.16	462.72	477.16	486.14	477.37	476.14	510.21	472.18	459.7	483.98	468.75	507.88	421.98	505.58	446.53000000000003	476.03000000000003	478.40000000000003
600	20873.0	10474.0	455.36	473.54999999999995	461.27	417.46000000000004	434.33000000000004	429.11	378.62	417.70000000000005	424.77	428.36	439.48	440.94	475.58	495.64	454.58	474.0	457.46000000000004	430.05999999999995	465.38	419.48	475.38	391.4	463.36	462.98	453.99	435.47	433.24
601	2098.0	17422.0	230.10000000000002	232.24	238.44	233.13	235.95	234.43	237.38	231.75	233.0	232.94	231.68	229.9	227.55	228.75	233.35	233.08	230.38	229.68	230.86	234.38	234.55	231.08	234.2	233.08	235.16	232.88	237.79000000000002
602	20224.0	13171.0	218.24	219.08	218.18	217.34000000000003	210.58	216.12	215.44	221.42000000000002	220.38	216.73000000000002	216.64000000000001	224.10000000000002	217.0	218.02	222.28000000000003	220.05	215.45999999999998	223.63	214.60000000000002	224.35	216.10000000000002	209.95	220.08	208.10000000000002	220.53000000000003	213.9	224.0
603	22560.0	17662.0	330.5	376.49	342.72	375.78	334.69	373.2	378.20000000000005	370.86	444.6	337.62	397.89	301.62	321.56000000000006	326.14000000000004	368.44	389.08000000000004	368.26	399.85	364.1	306.77000000000004	339.86	313.87	340.65	364.74	331.18	356.48	371.28
604	9465.0	22285.0	249.98000000000002	299.91999999999996	317.88	268.58000000000004	258.83000000000004	337.48	338.61	382.56000000000006	435.73	271.88	348.59000000000003	303.78	356.32000000000005	281.29	312.02	272.28	372.88	337.86	437.84000000000003	353.42	384.12	424.36	486.76	468.99000000000007	273.42	325.37	314.76
605	3514.0	20145.0	458.98	435.44000000000005	288.83	297.20000000000005	356.59999999999997	356.86	417.06000000000006	368.16	361.25	443.08000000000004	366.82000000000005	408.26	400.94	334.74	315.98	336.14	307.3	343.40999999999997	321.0	416.6	313.84000000000003	265.2	295.14	417.47	433.41999999999996	379.28	354.83000000000004
606	8976.0	8027.0	416.52	348.4	391.46	411.0	353.78	454.18	457.58	441.52	430.8	377.2	459.8	279.65999999999997	435.46000000000004	428.98	399.86	403.39	463.68	389.18	463.70000000000005	343.66	379.28000000000003	500.58000000000004	484.78000000000003	477.90999999999997	318.53999999999996	389.69000000000005	433.78999999999996
607	7612.0	394.0	401.95	370.19	345.05	383.66	475.38	304.52	380.51000000000005	567.28	293.4	521.5799999999999	339.48	473.54	490.14	344.18	361.48	439.20000000000005	533.6	450.86	368.03999999999996	509.82	467.86	365.95000000000005	335.38	358.56000000000006	318.88	316.3	459.26
608	1325.0	17336.0	403.20000000000005	368.12	396.58000000000004	407.31	362.8	399.89	379.6	391.62	611.5	402.82	487.48	387.63	368.34000000000003	359.44	422.04999999999995	603.1	420.96000000000004	591.8	381.14	400.78	298.89000000000004	383.07000000000005	368.94	520.0999999999999	402.1	358.76000000000005	398.6
609	4537.0	7911.0	357.68	392.59	352.01	361.36	402.98	369.0	391.02	411.4	405.41999999999996	392.36	357.75	377.88	358.28	401.85	328.26	341.43	358.56000000000006	368.18	367.39	325.82	348.24	368.58000000000004	440.58000000000004	387.76	433.53999999999996	406.06000000000006	375.93
610	8748.0	22729.0	400.06000000000006	359.56000000000006	389.68000000000006	399.66	400.53999999999996	399.0	444.02	355.1	390.3	378.66	407.53999999999996	434.0	410.92	340.6	400.48	440.46	397.86	375.26	382.5	314.25	423.06000000000006	360.65999999999997	367.08000000000004	385.69000000000005	411.68	394.68	395.78000000000003
611	20477.0	15344.0	386.6	218.4	334.99	417.61	357.7	340.65999999999997	443.29999999999995	329.48	358.08000000000004	346.68	429.16	345.08000000000004	320.0	351.64	343.88	351.31	325.58000000000004	339.05	426.26	354.44	351.15	371.90000000000003	431.70000000000005	385.68	314.06000000000006	471.15999999999997	426.9
612	10678.0	21508.0	320.21000000000004	376.23	325.08000000000004	339.40999999999997	349.38	310.36	343.53000000000003	346.48	314.48	324.36	372.47	365.37	308.78	342.17999999999995	331.78	300.3	333.70000000000005	350.68	367.26	319.3	328.88	244.38	358.08000000000004	325.8	365.77000000000004	354.63	294.22
613	21031.0	17714.0	450.3900000000001	477.6	472.9	513.48	439.57	411.96000000000004	407.98	485.84000000000003	429.16	482.12	485.42	451.99	414.08000000000004	396.43	413.57	494.27	476.48	469.58000000000004	309.45000000000005	370.09000000000003	404.67999999999995	365.46000000000004	454.48	390.39	423.0	397.66	388.43
614	7582.0	2258.0	286.35	291.65	289.96000000000004	308.04	298.26	294.36	300.02000000000004	289.85	296.72	308.13	305.83	317.24	299.93	296.49	294.79	431.0	309.97	295.56	296.9	285.93	333.44	301.44	301.25	305.5	292.82000000000005	307.8	293.49
615	7404.0	2074.0	361.68	409.5	489.52	384.88	384.42	406.78	452.95000000000005	447.58000000000004	474.32	441.24	345.83000000000004	473.9	395.07	388.88	440.24	422.70000000000005	436.3	495.02000000000004	413.39999999999986	485.19000000000005	440.58	575.18	423.12	366.70000000000005	375.72	492.58000000000004	366.28
616	8521.0	4848.0	481.28000000000003	449.08	432.92	349.25	354.03000000000003	416.28	408.5	462.88	309.20000000000005	424.44	404.32000000000005	344.6	493.88	401.92	443.86	459.4	451.48	364.5	405.88	287.3	426.4	429.15	291.28	320.98	485.08000000000004	382.74	323.70000000000005
617	22754.0	18785.0	209.7	217.94	214.5	217.5	216.28000000000003	216.99	246.3	216.94	216.10000000000002	216.48000000000002	223.55	212.18	221.7	215.88	215.48000000000002	228.79000000000002	220.98000000000002	228.48000000000002	228.85	223.56	218.28000000000003	214.42	224.5	238.43	222.2	221.77	220.34000000000003
618	5588.0	20931.0	368.32	392.38	416.14	412.97	459.89	467.48	462.25	430.72	434.36	477.38	448.6	395.25	356.13	445.02	351.86	481.1	460.18	383.62	476.23	459.18	462.46	432.78	349.4	411.56000000000006	509.59999999999997	471.08000000000004	393.65000000000003
619	6229.0	3098.0	275.32000000000005	284.86	282.58000000000004	285.4	277.99	280.98	285.03	284.4	282.54	281.69000000000005	280.24	289.8	301.48	287.98	281.7	279.74	283.1	284.56	277.67	282.72	281.88	278.68	286.14	286.53999999999996	306.58000000000004	280.44	278.28
620	11321.0	22535.0	282.64	281.08000000000004	288.24	291.42	300.07000000000005	287.6	289.03999999999996	282.78	286.68	288.0	285.74	293.03000000000003	285.33000000000004	289.28	288.02	293.3	288.0	284.48	289.35	289.69000000000005	281.32000000000005	286.23	287.15999999999997	292.38	287.98	291.93	304.41999999999996
621	4699.0	12910.0	265.35	256.67	251.32	258.36	255.28000000000003	258.53000000000003	260.83000000000004	256.2	266.78	263.14	261.94	272.1	268.09000000000003	255.38	265.98	265.89	256.47	265.7	277.78	260.14	269.1	267.3	255.28000000000003	254.56	262.3	261.76	254.45
622	255.0	10751.0	291.38	282.36	300.59000000000003	276.86	289.88	306.68	303.82	300.97	298.0	305.79	301.18	287.8	296.36	302.46	307.19000000000005	329.58	323.48	395.62	301.59000000000003	292.58000000000004	320.5	337.94	284.72	317.14	273.68	283.5	300.20000000000005
623	3888.0	2034.0	275.68	563.45	465.52	495.96000000000004	347.16	2017.92	774.4200000000001	1374.2399999999998	346.0	661.6200000000001	600.1600000000001	1912.6	2431.58	2798.44	523.1600000000001	3308.87	659.6200000000001	414.86	453.48	390.6	405.12	394.1	2066.1000000000004	507.18	457.38	493.02	347.1
624	4237.0	20513.0	491.22	400.65	281.18	478.0	379.28999999999996	410.58000000000004	379.8	404.39	362.78	394.84000000000003	446.72	262.38	370.41	395.70000000000005	345.86	485.66	439.67	421.91999999999996	416.0	412.58	472.52	451.48	386.44000000000005	378.88	306.48	395.26	392.32
625	8769.0	4429.0	585.56	561.6199999999999	536.8	512.3499999999999	521.76	512.98	577.57	520.98	614.63	554.6700000000001	383.87	601.16	572.6400000000001	524.04	446.44	577.28	557.58	578.12	481.03000000000003	547.4300000000001	338.18	547.88	554.1600000000001	313.56	423.06	490.32	440.91
626	14842.0	4997.0	395.98	396.05999999999995	371.79	440.44	335.41999999999996	418.56000000000006	395.25	425.29	332.28999999999996	360.98	420.08	459.86	412.4	426.36	397.09000000000003	461.07000000000005	384.4	503.88	423.51000000000005	364.74	369.66	430.14	381.88	401.36	439.17	489.65999999999997	417.21000000000004
627	22002.0	13642.0	1406.14	922.3299999999999	422.46999999999997	1026.1799999999998	404.74	3065.89	606.4200000000001	455.26	498.3	331.58000000000004	1471.86	1088.7199999999998	1431.32	425.82	437.70000000000005	2059.2	908.4	398.38	3066.6400000000003	447.47	1333.2900000000002	2482.6800000000003	516.86	2297.16	607.29	542.1099999999999	849.7700000000001
628	22453.0	14475.0	221.89000000000001	213.7	217.29000000000002	217.9	218.4	212.3	216.18	218.0	215.13	217.08	220.4	222.78000000000003	213.58	214.9	217.2	214.2	222.37	211.7	220.74	223.28000000000003	221.18	216.34	213.7	213.31	215.7	218.38	222.18
629	7085.0	1783.0	523.13	403.33000000000004	388.4	357.57	343.88	380.97	420.64	415.48	377.69000000000005	427.79	429.65999999999997	305.48	374.85	355.08	378.78	419.84000000000003	358.64	288.74	369.79999999999995	331.36	422.0	372.8	442.12	447.08000000000004	369.88	380.33	370.24
630	8346.0	8420.0	254.38	258.89	250.38	255.33	256.18	272.83000000000004	253.68	261.58000000000004	253.48000000000002	257.78000000000003	262.53999999999996	261.43000000000006	236.08	250.10000000000002	255.42000000000002	251.3	259.75	288.1	266.64	244.63000000000002	257.69000000000005	260.4	258.28	279.0	271.35	261.98	256.07000000000005
631	10016.0	2816.0	239.4	252.18	246.18	236.09	238.8	253.28	226.7	237.0	248.58	243.12	256.31	270.57	243.04	253.8	226.49	241.14	240.60000000000002	250.51000000000002	250.24	252.03	252.51	242.63000000000002	239.04000000000002	252.41	241.8	252.79000000000002	239.82
632	22730.0	21309.0	215.10000000000002	224.2	277.23	213.08	215.94	301.8	218.34	215.88	234.5	208.58	224.4	229.9	226.14000000000001	221.54000000000002	229.08	218.75	219.10000000000002	228.26	228.06	214.3	207.64	221.63000000000002	214.98000000000002	246.7	213.14	217.78000000000003	217.19
633	22227.0	305.0	515.38	369.96000000000004	379.6	507.94	536.69	495.26	343.14	330.85	488.5	612.5799999999999	628.3	552.6	358.22	502.34	525.06	383.58000000000004	559.88	450.65	446.49999999999994	428.48	499.56	451.76	387.74	500.96000000000004	411.65999999999997	385.56000000000006	443.58000000000004
634	19850.0	916.0	347.78	339.63	352.74	360.12	337.1	353.03999999999996	348.36	346.70000000000005	340.28	353.26	331.5	344.1	341.58000000000004	344.59000000000003	344.66	362.9	346.57	327.9	345.08000000000004	366.88	344.25	343.38	331.12	345.33	347.5	338.1	337.78
635	4061.0	7492.0	476.74	378.09	378.48	321.7	375.08	382.48	402.93	360.15999999999997	368.8	372.0	349.22	384.41999999999996	462.3	329.86	388.8	468.05999999999995	370.34000000000003	364.79	371.70000000000005	333.06000000000006	316.52000000000004	401.63	396.22	307.98	458.44	382.44000000000005	384.20000000000005
636	523.0	18967.0	380.88	426.68	407.12	415.51	398.69000000000005	374.2	392.03999999999996	409.23	393.96000000000004	431.57000000000005	441.1	396.75	394.65	420.24	395.43	431.67	428.12	413.85	374.26	402.08000000000004	352.41999999999996	279.78	319.26	369.6	401.69	348.53999999999996	372.28
637	862.0	12827.0	2327.4	467.62	2386.16	1308.0900000000001	790.39	478.1	1278.66	715.5799999999999	442.80000000000007	524.28	2389.2	1294.6599999999999	1321.77	1727.3500000000001	5730.37	271.34000000000003	673.9200000000001	691.5	406.41	530.74	472.78	1642.65	515.54	1119.8799999999999	559.8399999999999	1883.4299999999998	620.2
638	20607.0	12675.0	264.9	254.10000000000002	251.5	251.9	260.8	261.3	249.92000000000002	256.52	256.84	247.60000000000002	253.6	252.0	252.8	253.4	253.49	255.8	253.39	255.66000000000003	250.7	256.5	241.4	259.62	266.3	253.5	254.36	248.85000000000002	251.10000000000002
639	21475.0	12771.0	304.18	376.5	343.07	284.6	271.18	369.22	341.94	314.38	335.42	376.13	352.8	365.41999999999996	350.88	284.68	382.53999999999996	350.4	374.54	382.83000000000004	299.58000000000004	331.94000000000005	328.43	304.18	325.88	373.98	317.68	373.96000000000004	354.8
